File: Generating XRD fingerprints/INPUT/Source data/GS02.txt
Position	Dspace	ESD(P)	Corr.Fact	Intensity	Rel.Int.	FWHM(L)	ESD(L)	Area
[deg]	[A]	[deg]	[deg]	[CPS]	[CPS]	[deg]	[deg]	[deg]
2.8400	31.0834	0.0000	0.0000	78.33	1.02	0.0600	0.0000	7.8333
3.0000	29.4259	0.0000	0.0000	80.00	1.04	0.1000	0.0000	8.0000
3.2800	26.9146	0.0000	0.0000	54.17	0.70	0.1000	0.0000	5.4167
3.4800	25.3682	0.0000	0.0000	47.50	0.62	0.1200	0.0000	4.7500
3.6400	24.2534	0.0000	0.0000	62.50	0.81	0.0200	0.0000	3.7500
3.9000	22.6371	0.0000	0.0000	52.50	0.68	0.1600	0.0000	0.0000
3.9800	22.1823	0.0000	0.0000	52.50	0.68	0.0000	0.0000	5.2500
4.1400	21.3253	0.0000	0.0000	55.83	0.73	0.1000	0.0000	4.4667
4.2800	20.6281	0.0000	0.0000	52.50	0.68	0.1200	0.0000	2.1000
4.5000	19.6201	0.0000	0.0000	46.67	0.61	0.1600	0.0000	2.8000
4.6800	18.8659	0.0000	0.0000	54.17	0.70	0.1200	0.0000	4.3333
4.9800	17.7300	0.0000	0.0000	47.50	0.62	0.0400	0.0000	4.7500
5.1400	17.1785	0.0000	0.0000	40.83	0.53	0.0400	0.0000	4.0833
5.2800	16.7233	0.0000	0.0000	39.17	0.51	0.0800	0.0000	0.7833
5.4600	16.1724	0.0000	0.0000	45.83	0.60	0.1000	0.0000	3.6667
5.5000	16.0548	0.0000	0.0000	54.17	0.70	0.0800	0.0000	0.0000
5.7200	15.4378	0.0000	0.0000	40.83	0.53	0.0600	0.0000	0.0000
5.9200	14.9167	0.0000	0.0000	36.67	0.48	0.0800	0.0000	3.6667
6.1200	14.4297	0.0000	0.0000	48.33	0.63	0.1600	0.0000	4.8333
6.2800	14.0624	0.0000	0.0000	70.83	0.92	0.0000	0.0000	5.6667
6.4200	13.7561	0.0000	0.0000	30.83	0.40	0.0000	0.0000	0.0000
6.6000	13.3813	0.0000	0.0000	40.83	0.53	0.0600	0.0000	1.6333
7.0000	12.6175	0.0000	0.0000	39.17	0.51	0.0800	0.0000	0.0000
7.5200	11.7462	0.0000	0.0000	43.33	0.56	0.0600	0.0000	0.8667
7.7200	11.4423	0.0000	0.0000	32.50	0.42	0.0800	0.0000	1.9500
7.8400	11.2674	0.0000	0.0000	29.17	0.38	0.1200	0.0000	0.0000
8.9000	9.9277	0.0000	0.0000	870.83	11.32	0.0600	0.0000	87.0833
9.3000	9.5016	0.0000	0.0000	37.50	0.49	0.1000	0.0000	2.2500
9.4800	9.3216	0.0000	0.0000	40.00	0.52	0.0600	0.0000	4.0000
9.6800	9.1294	0.0000	0.0000	31.67	0.41	0.1200	0.0000	2.5333
9.8400	8.9813	0.0000	0.0000	40.00	0.52	0.0800	0.0000	0.0000
10.1400	8.7163	0.0000	0.0000	30.00	0.39	0.1600	0.0000	0.6000
10.2200	8.6482	0.0000	0.0000	29.17	0.38	0.0800	0.0000	0.0000
10.4600	8.4503	0.0000	0.0000	33.33	0.43	0.0600	0.0000	3.3333
10.5400	8.3864	0.0000	0.0000	32.50	0.42	0.0600	0.0000	0.0000
10.7400	8.2306	0.0000	0.0000	30.83	0.40	0.1200	0.0000	0.6167
11.0400	8.0076	0.0000	0.0000	38.33	0.50	0.0200	0.0000	0.7667
12.5200	7.0642	0.0000	0.0000	133.33	1.73	0.0600	0.0000	13.3333
12.8400	6.8888	0.0000	0.0000	34.17	0.44	0.1400	0.0000	2.0500
13.3800	6.6120	0.0000	0.0000	35.83	0.47	0.0600	0.0000	0.0000
13.6800	6.4677	0.0000	0.0000	52.50	0.68	0.1200	0.0000	7.3500
13.8800	6.3749	0.0000	0.0000	162.50	2.11	0.0000	0.0000	9.7500
15.0200	5.8935	0.0000	0.0000	53.33	0.69	0.1000	0.0000	2.1333
15.8800	5.5763	0.0000	0.0000	30.00	0.39	0.1600	0.0000	0.0000
17.8200	4.9733	0.0000	0.0000	278.33	3.62	0.0000	0.0000	38.9667
18.0400	4.9132	0.0000	0.0000	34.17	0.44	0.0600	0.0000	0.6833
18.8200	4.7113	0.0000	0.0000	69.17	0.90	0.0600	0.0000	4.1500
19.9200	4.4535	0.0000	0.0000	65.00	0.85	0.0000	0.0000	10.4000
20.8800	4.2509	0.0000	0.0000	1498.33	19.48	0.1000	0.0000	119.8667
22.0800	4.0225	0.0000	0.0000	340.00	4.42	0.1000	0.0000	34.0000
22.4800	3.9518	0.0000	0.0000	40.83	0.53	0.0800	0.0000	4.0833
23.0800	3.8504	0.0000	0.0000	81.67	1.06	0.0200	0.0000	11.4333
23.5600	3.7730	0.0000	0.0000	390.83	5.08	0.0600	0.0000	31.2667
24.3200	3.6568	0.0000	0.0000	173.33	2.25	0.0000	0.0000	20.8000
25.1800	3.5338	0.0000	0.0000	85.00	1.11	0.0200	0.0000	8.5000
25.6600	3.4688	0.0000	0.0000	169.17	2.20	0.0400	0.0000	20.3000
26.6600	3.3409	0.0000	0.0000	7690.83	100.00	0.1000	0.0000	769.0834
27.5400	3.2361	0.0000	0.0000	717.50	9.33	0.0000	0.0000	86.1000
27.9600	3.1885	0.0000	0.0000	1789.17	23.26	0.1000	0.0000	214.7000
28.6800	3.1100	0.0000	0.0000	40.83	0.53	0.1400	0.0000	0.0000
29.9200	2.9839	0.0000	0.0000	140.83	1.83	0.0000	0.0000	22.5333
30.1400	2.9626	0.0000	0.0000	85.00	1.11	0.0000	0.0000	13.6000
30.5200	2.9266	0.0000	0.0000	135.83	1.77	0.1000	0.0000	16.3000
30.8600	2.8951	0.0000	0.0000	145.83	1.90	0.0600	0.0000	5.8333
31.2600	2.8590	0.0000	0.0000	115.00	1.50	0.1000	0.0000	13.8000
31.5400	2.8342	0.0000	0.0000	30.83	0.40	0.1200	0.0000	3.0833
32.0800	2.7878	0.0000	0.0000	60.00	0.78	0.1600	0.0000	9.6000
32.1600	2.7810	0.0000	0.0000	54.17	0.70	0.1400	0.0000	8.6667
33.9600	2.6376	0.0000	0.0000	45.00	0.59	0.1400	0.0000	4.5000
34.6600	2.5859	0.0000	0.0000	100.00	1.30	0.0000	0.0000	16.0000
35.0800	2.5559	0.0000	0.0000	184.17	2.39	0.0800	0.0000	22.1000
35.6800	2.5143	0.0000	0.0000	29.17	0.38	0.1200	0.0000	4.0833
36.0600	2.4887	0.0000	0.0000	43.33	0.56	0.1400	0.0000	6.0667
36.5800	2.4545	0.0000	0.0000	590.00	7.67	0.0800	0.0000	35.4000
37.0400	2.4250	0.0000	0.0000	34.17	0.44	0.0800	0.0000	4.1000
37.4200	2.4013	0.0000	0.0000	61.67	0.80	0.0600	0.0000	8.6333
37.6800	2.3853	0.0000	0.0000	62.50	0.81	0.1400	0.0000	10.0000
37.7600	2.3804	0.0000	0.0000	70.00	0.91	0.1400	0.0000	9.8000
38.8400	2.3167	0.0000	0.0000	40.00	0.52	0.1000	0.0000	3.2000
39.5000	2.2795	0.0000	0.0000	428.33	5.57	0.0400	0.0000	25.7000
40.3200	2.2350	0.0000	0.0000	266.67	3.47	0.0000	0.0000	16.0000
41.2600	2.1862	0.0000	0.0000	35.00	0.46	0.0600	0.0000	1.4000
41.8000	2.1592	0.0000	0.0000	65.00	0.85	0.0400	0.0000	6.5000
42.4800	2.1262	0.0000	0.0000	341.67	4.44	0.0800	0.0000	27.3333
43.5600	2.0760	0.0000	0.0000	85.83	1.12	0.1000	0.0000	5.1500
45.6000	1.9877	0.0000	0.0000	204.17	2.65	0.1000	0.0000	32.6667
45.8200	1.9787	0.0000	0.0000	305.83	3.98	0.1000	0.0000	24.4667
47.1600	1.9256	0.0000	0.0000	31.67	0.41	0.0800	0.0000	2.5333
48.0000	1.8938	0.0000	0.0000	47.50	0.62	0.1200	0.0000	0.9500
48.1600	1.8879	0.0000	0.0000	45.83	0.60	0.1600	0.0000	4.5833
48.2800	1.8835	0.0000	0.0000	34.17	0.44	0.1600	0.0000	2.7333
49.0400	1.8561	0.0000	0.0000	42.50	0.55	0.1400	0.0000	2.5500
49.2400	1.8490	0.0000	0.0000	45.00	0.59	0.1200	0.0000	2.7000
50.1800	1.8165	0.0000	0.0000	1279.17	16.63	0.1000	0.0000	76.7500
50.6800	1.7998	0.0000	0.0000	90.00	1.17	0.0000	0.0000	14.4000
51.1600	1.7840	0.0000	0.0000	93.33	1.21	0.0200	0.0000	7.4667
51.3000	1.7795	0.0000	0.0000	58.33	0.76	0.0800	0.0000	3.5000
53.2800	1.7179	0.0000	0.0000	46.67	0.61	0.1000	0.0000	6.5333
54.9000	1.6710	0.0000	0.0000	293.33	3.81	0.0200	0.0000	17.6000
55.0600	1.6665	0.0000	0.0000	187.50	2.44	0.1000	0.0000	11.2500
55.3600	1.6582	0.0000	0.0000	159.17	2.07	0.0200	0.0000	9.5500
55.8800	1.6440	0.0000	0.0000	53.33	0.69	0.1200	0.0000	4.2667
57.2400	1.6081	0.0000	0.0000	32.50	0.42	0.0600	0.0000	1.3000
57.7200	1.5959	0.0000	0.0000	34.17	0.44	0.0600	0.0000	3.4167
57.8600	1.5923	0.0000	0.0000	30.83	0.40	0.0600	0.0000	2.4667
58.7200	1.5711	0.0000	0.0000	42.50	0.55	0.1200	0.0000	5.1000
59.9800	1.5410	0.0000	0.0000	613.33	7.97	0.1000	0.0000	36.8000
60.1400	1.5373	0.0000	0.0000	290.83	3.78	0.0800	0.0000	34.9000
60.5600	1.5276	0.0000	0.0000	31.67	0.41	0.1000	0.0000	3.8000
60.7400	1.5236	0.0000	0.0000	31.67	0.41	0.0400	0.0000	0.0000
61.5200	1.5061	0.0000	0.0000	39.17	0.51	0.1600	0.0000	6.2667
61.6400	1.5034	0.0000	0.0000	45.00	0.59	0.1600	0.0000	7.2000
63.7400	1.4589	0.0000	0.0000	40.83	0.53	0.1600	0.0000	4.9000
64.0600	1.4524	0.0000	0.0000	107.50	1.40	0.0800	0.0000	8.6000
64.2200	1.4491	0.0000	0.0000	57.50	0.75	0.1000	0.0000	6.9000