File: Generating XRD fingerprints/INPUT/Detrital data/10_2_AUG_PF_RT.txt
Filename:
	C:\Program Files\Thermo Electron\WinXRD\Datafiles\FIEN\10_2_AUG_0_BG_RT.pk

File Created:
	April 15, 2019 - 03:14 PM

Specimen Id:
	10.2 AUG 0 BG

Specimen Name:

Specimen Description:

Comment:
Scan Type: 2Theta Scan
Start Angle: 1 deg.
Stop Angle: 65 deg.
Num Points: 3201
Step Size: 0.02 deg.
Scan Rate: 1.000000
Scan Mode: Continuous
Wavelength: 1.540562
\Kalpha1: 1.540562	\Kalpha2: 1.544390	\Kbeta: 1.392218

Optics:
		Detector:
			 Type: Fixed Slits
		Tube:
			 Type: Fixed Slits

Datas:
Peaks:

Position        Dspace          ESD(P)          Corr.Fact       Intensity       Rel.Int.        FWHM(L)         ESD(L)          Area            Source                  Curve           Strain  CSize   CSize_Source
[deg]           [A]             [deg]           [deg]           [CPS]           [CPS]           [deg]           [deg]           [deg]           [--]                    [--]            [--]    [--]    [--]
  2.6400        33.4377           0.0000          0.0000            68.33         3.11          0.1400            0.0000           5.4667       PFind                   None            0.00    0.00    None
  3.0600        28.8491           0.0000          0.0000            48.33         2.20          0.1000            0.0000           3.8667       PFind                   None            0.00    0.00    None
  3.3800        26.1185           0.0000          0.0000            53.33         2.43          0.1000            0.0000           5.3333       PFind                   None            0.00    0.00    None
  3.7600        23.4797           0.0000          0.0000            46.67         2.12          0.1600            0.0000           6.5333       PFind                   None            0.00    0.00    None
  4.0400        21.8530           0.0000          0.0000            57.50         2.62          0.1400            0.0000           6.9000       PFind                   None            0.00    0.00    None
  4.3200        20.4372           0.0000          0.0000            40.00         1.82          0.0200            0.0000           4.0000       PFind                   None            0.00    0.00    None
  4.5800        19.2776           0.0000          0.0000            59.17         2.69          0.1200            0.0000           3.5500       PFind                   None            0.00    0.00    None
  6.1000        14.4770           0.0000          0.0000            64.17         2.92          0.1200            0.0000           0.0000       PFind                   None            0.00    0.00    None
  6.5800        13.4219           0.0000          0.0000            41.67         1.90          0.0400            0.0000           3.3333       PFind                   None            0.00    0.00    None
  8.3200        10.6184           0.0000          0.0000            43.33         1.97          0.0800            0.0000           0.0000       PFind                   None            0.00    0.00    None
  9.3400         9.4610           0.0000          0.0000            41.67         1.90          0.1000            0.0000           3.3333       PFind                   None            0.00    0.00    None
 12.3400         7.1668           0.0000          0.0000           255.00        11.60          0.1000            0.0000          30.6000       PFind                   None            0.00    0.00    None
 14.0200         6.3116           0.0000          0.0000            50.00         2.28          0.1400            0.0000           3.0000       PFind                   None            0.00    0.00    None
 15.9800         5.5416           0.0000          0.0000            41.67         1.90          0.0200            0.0000           2.5000       PFind                   None            0.00    0.00    None
 17.9600         4.9349           0.0000          0.0000           184.17         8.38          0.0800            0.0000          18.4167       PFind                   None            0.00    0.00    None
 18.9200         4.6866           0.0000          0.0000            65.00         2.96          0.1400            0.0000           9.1000       PFind                   None            0.00    0.00    None
 20.9600         4.2348           0.0000          0.0000           425.83        19.38          0.1000            0.0000          34.0667       PFind                   None            0.00    0.00    None
 24.4200         3.6421           0.0000          0.0000           120.83         5.50          0.0600            0.0000          12.0833       PFind                   None            0.00    0.00    None
 24.9600         3.5645           0.0000          0.0000           100.83         4.59          0.0800            0.0000          14.1167       PFind                   None            0.00    0.00    None
 25.5400         3.4848           0.0000          0.0000           970.00        44.14          0.0800            0.0000          77.6000       PFind                   None            0.00    0.00    None
 27.0000         3.2996           0.0000          0.0000           543.33        24.73          0.0400            0.0000          76.0667       PFind                   None            0.00    0.00    None
 28.0600         3.1773           0.0000          0.0000           421.67        19.19          0.0800            0.0000          59.0333       PFind                   None            0.00    0.00    None
 28.7800         3.0995           0.0000          0.0000            94.17         4.29          0.1000            0.0000          13.1833       PFind                   None            0.00    0.00    None
 30.3000         2.9474           0.0000          0.0000           209.17         9.52          0.0000            0.0000          20.9167       PFind                   None            0.00    0.00    None
 31.1200         2.8715           0.0000          0.0000            51.67         2.35          0.1600            0.0000           7.2333       PFind                   None            0.00    0.00    None
 32.2600         2.7726           0.0000          0.0000            49.17         2.24          0.1200            0.0000           5.9000       PFind                   None            0.00    0.00    None
 34.7000         2.5830           0.0000          0.0000           107.50         4.89          0.1400            0.0000          15.0500       PFind                   None            0.00    0.00    None
 35.6000         2.5198           0.0000          0.0000           234.17        10.66          0.1600            0.0000          28.1000       PFind                   None            0.00    0.00    None
 37.4800         2.3976           0.0000          0.0000            42.50         1.93          0.1000            0.0000           5.1000       PFind                   None            0.00    0.00    None
 39.5800         2.2751           0.0000          0.0000           135.83         6.18          0.0600            0.0000          19.0167       PFind                   None            0.00    0.00    None
 41.8000         2.1592           0.0000          0.0000            51.67         2.35          0.1200            0.0000           6.2000       PFind                   None            0.00    0.00    None
 42.5400         2.1234           0.0000          0.0000           143.33         6.52          0.0600            0.0000          14.3333       PFind                   None            0.00    0.00    None
 45.7200         1.9828           0.0000          0.0000           145.83         6.64          0.0800            0.0000          23.3333       PFind                   None            0.00    0.00    None
 47.2200         1.9233           0.0000          0.0000            40.83         1.86          0.1600            0.0000           2.4500       PFind                   None            0.00    0.00    None
 49.8600         1.8274           0.0000          0.0000            51.67         2.35          0.1400            0.0000           3.1000       PFind                   None            0.00    0.00    None
 50.2800         1.8131           0.0000          0.0000           870.83        39.63          0.0800            0.0000          69.6667       PFind                   None            0.00    0.00    None
 52.4800         1.7422           0.0000          0.0000           380.83        17.33          0.1400            0.0000          15.2333       PFind                   None            0.00    0.00    None
 54.9800         1.6687           0.0000          0.0000            79.17         3.60          0.0800            0.0000           7.9167       PFind                   None            0.00    0.00    None
 58.3400         1.5804           0.0000          0.0000            44.17         2.01          0.0600            0.0000           4.4167       PFind                   None            0.00    0.00    None
 60.0400         1.5396           0.0000          0.0000           202.50         9.22          0.1200            0.0000          20.2500       PFind                   None            0.00    0.00    None
 61.5800         1.5048           0.0000          0.0000            42.50         1.93          0.0400            0.0000           6.8000       PFind                   None            0.00    0.00    None
 63.6400         1.4609           0.0000          0.0000            40.83         1.86          0.1400            0.0000           3.2667       PFind                   None            0.00    0.00    None
 64.3200         1.4471           0.0000          0.0000            40.83         1.86          0.1000            0.0000           0.8167       PFind                   None            0.00    0.00    None