File: Generating XRD fingerprints/INPUT/Detrital data/11_A_pf_FT.txt
Filename:
	C:\Program Files\Thermo Electron\WinXRD\Datafiles\FIEN2\FIEN\11_A_FT.pk

File Created:
	February 25, 2021 - 10:40 AM

Specimen Id:
	11A FT

Specimen Name:

Specimen Description:

Comment:
Scan Type: 2Theta Scan
Start Angle: 1 deg.
Stop Angle: 65 deg.
Num Points: 3201
Step Size: 0.02 deg.
Scan Rate: 1.000000
Scan Mode: Continuous
Wavelength: 1.540562
\Kalpha1: 1.540562	\Kalpha2: 1.544390	\Kbeta: 1.392218

Optics:
		Detector:
			 Type: Fixed Slits
		Tube:
			 Type: Fixed Slits

Datas:
Peaks:

Position        Dspace          ESD(P)          Corr.Fact       Intensity       Rel.Int.        FWHM(L)         ESD(L)          Area            Source                  Curve           Strain  CSize   CSize_Source
[deg]           [A]             [deg]           [deg]           [CPS]           [CPS]           [deg]           [deg]           [deg]           [--]                    [--]            [--]    [--]    [--]
 32.1000         2.7861           0.0000          0.0000            25.83         0.53          0.1000            0.0000           1.5500       PFind                   None            0.00    0.00    None
 58.7800         1.5696           0.0000          0.0000            26.67         0.54          0.0400            0.0000           0.0000       PFind                   None            0.00    0.00    None
 50.8000         1.7958           0.0000          0.0000            27.50         0.56          0.0800            0.0000           1.1000       PFind                   None            0.00    0.00    None
 34.7000         2.5830           0.0000          0.0000            28.33         0.58          0.0600            0.0000           1.1333       PFind                   None            0.00    0.00    None
 46.9600         1.9333           0.0000          0.0000            29.17         0.59          0.1600            0.0000           1.1667       PFind                   None            0.00    0.00    None
  9.6600         9.1483           0.0000          0.0000            30.00         0.61          0.1200            0.0000           2.4000       PFind                   None            0.00    0.00    None
 10.9200         8.0954           0.0000          0.0000            30.00         0.61          0.1200            0.0000           0.0000       PFind                   None            0.00    0.00    None
 17.3600         5.1040           0.0000          0.0000            30.83         0.63          0.0600            0.0000           1.2333       PFind                   None            0.00    0.00    None
  9.9800         8.8557           0.0000          0.0000            31.67         0.65          0.0200            0.0000           1.9000       PFind                   None            0.00    0.00    None
 43.1200         2.0961           0.0000          0.0000            32.50         0.66          0.1600            0.0000           0.0000       PFind                   None            0.00    0.00    None
 32.2800         2.7709           0.0000          0.0000            33.33         0.68          0.1600            0.0000           2.6667       PFind                   None            0.00    0.00    None
 10.3400         8.5481           0.0000          0.0000            34.17         0.70          0.0600            0.0000           2.7333       PFind                   None            0.00    0.00    None
 37.7000         2.3841           0.0000          0.0000            35.83         0.73          0.0400            0.0000           2.1500       PFind                   None            0.00    0.00    None
 55.5600         1.6527           0.0000          0.0000            37.50         0.76          0.0200            0.0000           5.2500       PFind                   None            0.00    0.00    None
 22.7000         3.9140           0.0000          0.0000            39.17         0.80          0.0800            0.0000           2.3500       PFind                   None            0.00    0.00    None
  8.0800        10.9333           0.0000          0.0000            40.00         0.82          0.1200            0.0000           0.0000       PFind                   None            0.00    0.00    None
  9.5000         9.3020           0.0000          0.0000            41.67         0.85          0.0600            0.0000           0.8333       PFind                   None            0.00    0.00    None
  6.6800        13.2212           0.0000          0.0000            44.17         0.90          0.1200            0.0000           3.5333       PFind                   None            0.00    0.00    None
  5.2600        16.7868           0.0000          0.0000            45.83         0.93          0.1200            0.0000           1.8333       PFind                   None            0.00    0.00    None
 28.7200         3.1058           0.0000          0.0000            48.33         0.99          0.1200            0.0000           5.8000       PFind                   None            0.00    0.00    None
 64.1800         1.4499           0.0000          0.0000            49.17         1.00          0.1600            0.0000           4.9167       PFind                   None            0.00    0.00    None
 55.3800         1.6576           0.0000          0.0000            50.00         1.02          0.0800            0.0000           5.0000       PFind                   None            0.00    0.00    None
  4.6800        18.8659           0.0000          0.0000            53.33         1.09          0.0600            0.0000           1.0667       PFind                   None            0.00    0.00    None
  4.1400        21.3253           0.0000          0.0000            56.67         1.16          0.1400            0.0000           5.6667       PFind                   None            0.00    0.00    None
 63.9400         1.4548           0.0000          0.0000            58.33         1.19          0.1200            0.0000           9.3333       PFind                   None            0.00    0.00    None
 53.3800         1.7149           0.0000          0.0000            65.00         1.32          0.1600            0.0000          10.4000       PFind                   None            0.00    0.00    None
 49.4200         1.8427           0.0000          0.0000            70.00         1.43          0.1200            0.0000           4.2000       PFind                   None            0.00    0.00    None
  3.4200        25.8131           0.0000          0.0000            73.33         1.49          0.0200            0.0000           2.9333       PFind                   None            0.00    0.00    None
 30.6600         2.9136           0.0000          0.0000            76.67         1.56          0.0800            0.0000           6.1333       PFind                   None            0.00    0.00    None
 32.5000         2.7527           0.0000          0.0000            80.83         1.65          0.1400            0.0000           9.7000       PFind                   None            0.00    0.00    None
  3.9800        22.1823           0.0000          0.0000            87.50         1.78          0.0400            0.0000           3.5000       PFind                   None            0.00    0.00    None
  2.9200        30.2319           0.0000          0.0000            92.50         1.89          0.0400            0.0000           7.4000       PFind                   None            0.00    0.00    None
  3.0400        29.0388           0.0000          0.0000            96.67         1.97          0.0600            0.0000           7.7333       PFind                   None            0.00    0.00    None
  6.3200        13.9735           0.0000          0.0000           100.83         2.06          0.0200            0.0000           8.0667       PFind                   None            0.00    0.00    None
 25.6800         3.4662           0.0000          0.0000           106.67         2.17          0.0200            0.0000          17.0667       PFind                   None            0.00    0.00    None
 44.6000         2.0300           0.0000          0.0000           125.83         2.56          0.0200            0.0000           5.0333       PFind                   None            0.00    0.00    None
 31.4000         2.8466           0.0000          0.0000           150.00         3.06          0.0600            0.0000          18.0000       PFind                   None            0.00    0.00    None
 41.9400         2.1523           0.0000          0.0000           160.00         3.26          0.1600            0.0000          25.6000       PFind                   None            0.00    0.00    None
 25.3400         3.5119           0.0000          0.0000           190.00         3.87          0.0400            0.0000          26.6000       PFind                   None            0.00    0.00    None
 48.4400         1.8776           0.0000          0.0000           234.17         4.77          0.0400            0.0000          14.0500       PFind                   None            0.00    0.00    None
 12.3600         7.1553           0.0000          0.0000           302.50         6.17          0.0800            0.0000          48.4000       PFind                   None            0.00    0.00    None
  9.0600         9.7527           0.0000          0.0000           384.17         7.83          0.1000            0.0000          15.3667       PFind                   None            0.00    0.00    None
 42.6000         2.1205           0.0000          0.0000           442.50         9.02          0.0000            0.0000          35.4000       PFind                   None            0.00    0.00    None
 27.9800         3.1862           0.0000          0.0000           522.50        10.65          0.0000            0.0000          73.1500       PFind                   None            0.00    0.00    None
 45.7400         1.9820           0.0000          0.0000           740.83        15.10          0.1200            0.0000          44.4500       PFind                   None            0.00    0.00    None
 21.0000         4.2268           0.0000          0.0000          1494.17        30.46          0.0800            0.0000         119.5333       PFind                   None            0.00    0.00    None
 26.7800         3.3262           0.0000          0.0000          4905.83       100.00          0.0800            0.0000         490.5833       PFind                   None            0.00    0.00    None