File: Generating XRD fingerprints/INPUT/Detrital data/11_AUG_PF_RT.txt
Filename:
	C:\Program Files\Thermo Electron\WinXRD\Datafiles\FIEN\11_AUG_P_RT.pk

File Created:
	April 15, 2019 - 03:17 PM

Specimen Id:
	11 AUG P FT

Specimen Name:

Specimen Description:

Comment:
Scan Type: 2Theta Scan
Start Angle: 1 deg.
Stop Angle: 65 deg.
Num Points: 3201
Step Size: 0.02 deg.
Scan Rate: 1.000000
Scan Mode: Continuous
Wavelength: 1.540562
\Kalpha1: 1.540562	\Kalpha2: 1.544390	\Kbeta: 1.392218

Optics:
		Detector:
			 Type: Fixed Slits
		Tube:
			 Type: Fixed Slits

Datas:
Peaks:

Position        Dspace          ESD(P)          Corr.Fact       Intensity       Rel.Int.        FWHM(L)         ESD(L)          Area            Source                  Curve           Strain  CSize   CSize_Source
[deg]           [A]             [deg]           [deg]           [CPS]           [CPS]           [deg]           [deg]           [deg]           [--]                    [--]            [--]    [--]    [--]
  2.6600        33.1863           0.0000          0.0000            62.50         2.56          0.1400            0.0000          10.0000       PFind                   None            0.00    0.00    None
  2.9000        30.4404           0.0000          0.0000            61.67         2.53          0.1400            0.0000           4.9333       PFind                   None            0.00    0.00    None
  3.1200        28.2944           0.0000          0.0000            70.00         2.87          0.1600            0.0000           1.4000       PFind                   None            0.00    0.00    None
  3.4600        25.5148           0.0000          0.0000            68.33         2.80          0.1600            0.0000           4.1000       PFind                   None            0.00    0.00    None
  3.8000        23.2326           0.0000          0.0000            60.83         2.50          0.0600            0.0000           4.8667       PFind                   None            0.00    0.00    None
  4.2200        20.9212           0.0000          0.0000            56.67         2.32          0.0600            0.0000           3.4000       PFind                   None            0.00    0.00    None
  4.7200        18.7061           0.0000          0.0000            40.83         1.68          0.0800            0.0000           5.7167       PFind                   None            0.00    0.00    None
  5.3800        16.4127           0.0000          0.0000            44.17         1.81          0.0800            0.0000           0.0000       PFind                   None            0.00    0.00    None
  5.9200        14.9167           0.0000          0.0000            52.50         2.15          0.1000            0.0000           1.0500       PFind                   None            0.00    0.00    None
  6.5800        13.4219           0.0000          0.0000            45.83         1.88          0.0800            0.0000           2.7500       PFind                   None            0.00    0.00    None
  9.2000         9.6046           0.0000          0.0000            84.17         3.45          0.0800            0.0000           5.0500       PFind                   None            0.00    0.00    None
 10.5000         8.4182           0.0000          0.0000           210.00         8.62          0.0600            0.0000          12.6000       PFind                   None            0.00    0.00    None
 12.5000         7.0754           0.0000          0.0000           293.33        12.03          0.1400            0.0000          23.4667       PFind                   None            0.00    0.00    None
 13.8400         6.3933           0.0000          0.0000           111.67         4.58          0.0800            0.0000           8.9333       PFind                   None            0.00    0.00    None
 17.8000         4.9789           0.0000          0.0000           335.83        13.78          0.0600            0.0000          33.5833       PFind                   None            0.00    0.00    None
 18.7600         4.7262           0.0000          0.0000           118.33         4.85          0.1000            0.0000          11.8333       PFind                   None            0.00    0.00    None
 20.8400         4.2589           0.0000          0.0000           632.50        25.95          0.0600            0.0000          50.6000       PFind                   None            0.00    0.00    None
 23.0000         3.8636           0.0000          0.0000           142.50         5.85          0.0800            0.0000           8.5500       PFind                   None            0.00    0.00    None
 24.2800         3.6628           0.0000          0.0000           121.67         4.99          0.0800            0.0000           7.3000       PFind                   None            0.00    0.00    None
 24.8600         3.5786           0.0000          0.0000            58.33         2.39          0.0600            0.0000           9.3333       PFind                   None            0.00    0.00    None
 25.5200         3.4875           0.0000          0.0000            77.50         3.18          0.1200            0.0000          10.8500       PFind                   None            0.00    0.00    None
 26.8600         3.3165           0.0000          0.0000           900.83        36.96          0.0800            0.0000         108.1000       PFind                   None            0.00    0.00    None
 27.9400         3.1907           0.0000          0.0000           854.17        35.04          0.0400            0.0000         102.5000       PFind                   None            0.00    0.00    None
 28.6600         3.1122           0.0000          0.0000            58.33         2.39          0.0800            0.0000           9.3333       PFind                   None            0.00    0.00    None
 30.1600         2.9607           0.0000          0.0000            65.83         2.70          0.1200            0.0000          10.5333       PFind                   None            0.00    0.00    None
 30.8400         2.8970           0.0000          0.0000            54.17         2.22          0.1600            0.0000           4.3333       PFind                   None            0.00    0.00    None
 31.6200         2.8273           0.0000          0.0000            45.00         1.85          0.0600            0.0000           5.4000       PFind                   None            0.00    0.00    None
 32.0400         2.7911           0.0000          0.0000            56.67         2.32          0.0600            0.0000           6.8000       PFind                   None            0.00    0.00    None
 33.0400         2.7089           0.0000          0.0000            48.33         1.98          0.0400            0.0000           2.9000       PFind                   None            0.00    0.00    None
 34.4000         2.6049           0.0000          0.0000            61.67         2.53          0.1400            0.0000           6.1667       PFind                   None            0.00    0.00    None
 35.5400         2.5239           0.0000          0.0000            97.50         4.00          0.0800            0.0000          13.6500       PFind                   None            0.00    0.00    None
 36.5400         2.4571           0.0000          0.0000           230.00         9.44          0.0200            0.0000          13.8000       PFind                   None            0.00    0.00    None
 39.4400         2.2828           0.0000          0.0000           175.83         7.21          0.0800            0.0000          10.5500       PFind                   None            0.00    0.00    None
 41.7000         2.1642           0.0000          0.0000            50.83         2.09          0.1000            0.0000           3.0500       PFind                   None            0.00    0.00    None
 43.5400         2.0769           0.0000          0.0000           152.50         6.26          0.1000            0.0000          18.3000       PFind                   None            0.00    0.00    None
 47.2200         1.9233           0.0000          0.0000            79.17         3.25          0.1200            0.0000           7.9167       PFind                   None            0.00    0.00    None
 50.2600         1.8138           0.0000          0.0000           371.67        15.25          0.0800            0.0000          22.3000       PFind                   None            0.00    0.00    None
 51.1200         1.7853           0.0000          0.0000           160.83         6.60          0.0600            0.0000           6.4333       PFind                   None            0.00    0.00    None
 53.3000         1.7173           0.0000          0.0000            76.67         3.15          0.1200            0.0000           7.6667       PFind                   None            0.00    0.00    None
 55.0000         1.6682           0.0000          0.0000            74.17         3.04          0.1600            0.0000           5.9333       PFind                   None            0.00    0.00    None
 55.4600         1.6554           0.0000          0.0000           260.00        10.67          0.0000            0.0000          10.4000       PFind                   None            0.00    0.00    None
 60.1200         1.5378           0.0000          0.0000           157.50         6.46          0.0600            0.0000          18.9000       PFind                   None            0.00    0.00    None
 61.6400         1.5034           0.0000          0.0000            45.00         1.85          0.0800            0.0000           7.2000       PFind                   None            0.00    0.00    None
 63.8400         1.4568           0.0000          0.0000            69.17         2.84          0.0800            0.0000           2.7667       PFind                   None            0.00    0.00    None
 64.2000         1.4495           0.0000          0.0000            40.83         1.68          0.1600            0.0000           1.6333       PFind                   None            0.00    0.00    None