File: Generating XRD fingerprints/INPUT/Detrital data/12_1_AUG_PF_FILTER.txt
Filename:
	C:\Program Files\Thermo Electron\WinXRD\Datafiles\FIEN\12_1_AUG_FILTER.pk

File Created:
	March 05, 2019 - 04:57 AM

Specimen Id:
	12.1 AUG FT

Specimen Name:

Specimen Description:

Comment:
Scan Type: 2Theta Scan
Start Angle: 1 deg.
Stop Angle: 65 deg.
Num Points: 3201
Step Size: 0.02 deg.
Scan Rate: 1.000000
Scan Mode: Continuous
Wavelength: 1.540562
\Kalpha1: 1.540562	\Kalpha2: 1.544390	\Kbeta: 1.392218

Optics:
		Detector:
			 Type: Fixed Slits
		Tube:
			 Type: Fixed Slits

Datas:
Peaks:

Position        Dspace          ESD(P)          Corr.Fact       Intensity       Rel.Int.        FWHM(L)         ESD(L)          Area            Source                  Curve           Strain  CSize   CSize_Source
[deg]           [A]             [deg]           [deg]           [CPS]           [CPS]           [deg]           [deg]           [deg]           [--]                    [--]            [--]    [--]    [--]
  2.7400        32.2176           0.0000          0.0000            67.50         1.59          0.0000            0.0000          10.8000       PFind                   None            0.00    0.00    None
  3.4200        25.8131           0.0000          0.0000            56.67         1.34          0.1000            0.0000           4.5333       PFind                   None            0.00    0.00    None
  4.1600        21.2229           0.0000          0.0000            39.17         0.92          0.0800            0.0000           1.5667       PFind                   None            0.00    0.00    None
  4.7600        18.5490           0.0000          0.0000            33.33         0.79          0.1000            0.0000           2.0000       PFind                   None            0.00    0.00    None
  5.3800        16.4127           0.0000          0.0000            30.00         0.71          0.0600            0.0000           1.8000       PFind                   None            0.00    0.00    None
  6.6400        13.3008           0.0000          0.0000            41.67         0.98          0.1600            0.0000           1.6667       PFind                   None            0.00    0.00    None
  7.2600        12.1662           0.0000          0.0000            30.00         0.71          0.0000            0.0000           0.0000       PFind                   None            0.00    0.00    None
  7.9800        11.0701           0.0000          0.0000            39.17         0.92          0.0200            0.0000           0.7833       PFind                   None            0.00    0.00    None
  9.1800         9.6255           0.0000          0.0000            80.00         1.89          0.0000            0.0000           9.6000       PFind                   None            0.00    0.00    None
  9.8600         8.9632           0.0000          0.0000            20.00         0.47          0.0600            0.0000           1.2000       PFind                   None            0.00    0.00    None
 10.8000         8.1850           0.0000          0.0000            29.17         0.69          0.0200            0.0000           0.0000       PFind                   None            0.00    0.00    None
 11.4600         7.7151           0.0000          0.0000            19.17         0.45          0.0200            0.0000           1.5333       PFind                   None            0.00    0.00    None
 12.4800         7.0867           0.0000          0.0000           309.17         7.29          0.1200            0.0000          49.4667       PFind                   None            0.00    0.00    None
 13.3200         6.6417           0.0000          0.0000            28.33         0.67          0.0400            0.0000           0.5667       PFind                   None            0.00    0.00    None
 14.2800         6.1972           0.0000          0.0000            21.67         0.51          0.1400            0.0000           1.7333       PFind                   None            0.00    0.00    None
 15.1600         5.8394           0.0000          0.0000            20.00         0.47          0.0600            0.0000           1.6000       PFind                   None            0.00    0.00    None
 16.3400         5.4203           0.0000          0.0000            16.67         0.39          0.0600            0.0000           0.6667       PFind                   None            0.00    0.00    None
 16.9600         5.2235           0.0000          0.0000            16.67         0.39          0.0000            0.0000           0.0000       PFind                   None            0.00    0.00    None
 19.5200         4.5439           0.0000          0.0000            15.83         0.37          0.0400            0.0000           0.6333       PFind                   None            0.00    0.00    None
 20.6400         4.2997           0.0000          0.0000            44.17         1.04          0.0600            0.0000           2.6500       PFind                   None            0.00    0.00    None
 22.0800         4.0225           0.0000          0.0000            20.00         0.47          0.1000            0.0000           1.6000       PFind                   None            0.00    0.00    None
 25.1600         3.5366           0.0000          0.0000           175.83         4.15          0.0000            0.0000          21.1000       PFind                   None            0.00    0.00    None
 26.7000         3.3360           0.0000          0.0000           298.33         7.03          0.1000            0.0000          35.8000       PFind                   None            0.00    0.00    None
 27.9600         3.1885           0.0000          0.0000            92.50         2.18          0.0600            0.0000          12.9500       PFind                   None            0.00    0.00    None
 29.8400         2.9917           0.0000          0.0000           110.00         2.59          0.0600            0.0000           6.6000       PFind                   None            0.00    0.00    None
 31.6200         2.8273           0.0000          0.0000            31.67         0.75          0.0600            0.0000           4.4333       PFind                   None            0.00    0.00    None
 32.5800         2.7461           0.0000          0.0000            35.83         0.84          0.1600            0.0000           0.7167       PFind                   None            0.00    0.00    None
 35.6400         2.5170           0.0000          0.0000            20.83         0.49          0.0600            0.0000           0.4167       PFind                   None            0.00    0.00    None
 36.7400         2.4442           0.0000          0.0000            20.83         0.49          0.1200            0.0000           0.0000       PFind                   None            0.00    0.00    None
 39.0600         2.3042           0.0000          0.0000            20.83         0.49          0.1200            0.0000           0.4167       PFind                   None            0.00    0.00    None
 39.8800         2.2587           0.0000          0.0000            38.33         0.90          0.0000            0.0000           4.6000       PFind                   None            0.00    0.00    None
 41.6600         2.1662           0.0000          0.0000            15.83         0.37          0.0000            0.0000           0.0000       PFind                   None            0.00    0.00    None
 42.3800         2.1310           0.0000          0.0000            32.50         0.77          0.0800            0.0000           1.3000       PFind                   None            0.00    0.00    None
 43.5000         2.0787           0.0000          0.0000            16.67         0.39          0.0000            0.0000           0.0000       PFind                   None            0.00    0.00    None
 45.6400         1.9861           0.0000          0.0000           127.50         3.01          0.0800            0.0000          17.8500       PFind                   None            0.00    0.00    None
 47.3600         1.9179           0.0000          0.0000            16.67         0.39          0.0400            0.0000           0.6667       PFind                   None            0.00    0.00    None
 49.0600         1.8553           0.0000          0.0000            28.33         0.67          0.0400            0.0000           2.8333       PFind                   None            0.00    0.00    None
 57.6200         1.5984           0.0000          0.0000            23.33         0.55          0.0600            0.0000           0.4667       PFind                   None            0.00    0.00    None
 63.8600         1.4564           0.0000          0.0000            17.50         0.41          0.0200            0.0000           0.0000       PFind                   None            0.00    0.00    None
 64.4600         1.4443           0.0000          0.0000           715.83        16.88          0.1600            0.0000         114.5333       PFind                   None            0.00    0.00    None