File: Generating XRD fingerprints/INPUT/Detrital data/14_1_AUG_PF_RT.txt
Filename:
	C:\Program Files\Thermo Electron\WinXRD\Datafiles\FIEN\14_1_AUG_P_RT.pk

File Created:
	April 15, 2019 - 03:22 PM

Specimen Id:
	14.1 AUG FT

Specimen Name:

Specimen Description:

Comment:
Scan Type: 2Theta Scan
Start Angle: 1 deg.
Stop Angle: 65 deg.
Num Points: 3201
Step Size: 0.02 deg.
Scan Rate: 1.000000
Scan Mode: Continuous
Wavelength: 1.540562
\Kalpha1: 1.540562	\Kalpha2: 1.544390	\Kbeta: 1.392218

Optics:
		Detector:
			 Type: Fixed Slits
		Tube:
			 Type: Fixed Slits

Datas:
Peaks:

Position        Dspace          ESD(P)          Corr.Fact       Intensity       Rel.Int.        FWHM(L)         ESD(L)          Area            Source                  Curve           Strain  CSize   CSize_Source
[deg]           [A]             [deg]           [deg]           [CPS]           [CPS]           [deg]           [deg]           [deg]           [--]                    [--]            [--]    [--]    [--]
  2.7200        32.4544           0.0000          0.0000            70.00         1.87          0.0400            0.0000           5.6000       PFind                   None            0.00    0.00    None
  3.2600        27.0796           0.0000          0.0000            54.17         1.44          0.0800            0.0000           5.4167       PFind                   None            0.00    0.00    None
  3.6800        23.9899           0.0000          0.0000            45.83         1.22          0.1600            0.0000           3.6667       PFind                   None            0.00    0.00    None
  4.2200        20.9212           0.0000          0.0000            39.17         1.04          0.1000            0.0000           1.5667       PFind                   None            0.00    0.00    None
  5.3200        16.5976           0.0000          0.0000            41.67         1.11          0.0800            0.0000           1.6667       PFind                   None            0.00    0.00    None
  6.2800        14.0624           0.0000          0.0000           212.50         5.67          0.0400            0.0000          34.0000       PFind                   None            0.00    0.00    None
  8.9400         9.8834           0.0000          0.0000           606.67        16.17          0.0800            0.0000          48.5333       PFind                   None            0.00    0.00    None
 10.5600         8.3705           0.0000          0.0000           138.33         3.69          0.0600            0.0000           8.3000       PFind                   None            0.00    0.00    None
 13.7000         6.4583           0.0000          0.0000            53.33         1.42          0.1000            0.0000           3.2000       PFind                   None            0.00    0.00    None
 15.8200         5.5973           0.0000          0.0000            35.00         0.93          0.0800            0.0000           0.7000       PFind                   None            0.00    0.00    None
 18.6000         4.7665           0.0000          0.0000            39.17         1.04          0.1600            0.0000           3.9167       PFind                   None            0.00    0.00    None
 20.9000         4.2468           0.0000          0.0000           355.83         9.49          0.0800            0.0000          35.5833       PFind                   None            0.00    0.00    None
 23.6000         3.7667           0.0000          0.0000           125.00         3.33          0.0400            0.0000          12.5000       PFind                   None            0.00    0.00    None
 24.6200         3.6129           0.0000          0.0000           206.67         5.51          0.0000            0.0000          20.6667       PFind                   None            0.00    0.00    None
 26.6800         3.3385           0.0000          0.0000          3750.83       100.00          0.0800            0.0000         375.0833       PFind                   None            0.00    0.00    None
 27.9800         3.1862           0.0000          0.0000          1676.67        44.70          0.1200            0.0000         167.6667       PFind                   None            0.00    0.00    None
 30.2600         2.9512           0.0000          0.0000           170.83         4.55          0.0800            0.0000          23.9167       PFind                   None            0.00    0.00    None
 31.2600         2.8590           0.0000          0.0000            65.00         1.73          0.1000            0.0000           9.1000       PFind                   None            0.00    0.00    None
 32.1600         2.7810           0.0000          0.0000            38.33         1.02          0.1400            0.0000           3.8333       PFind                   None            0.00    0.00    None
 33.9600         2.6376           0.0000          0.0000            41.67         1.11          0.1400            0.0000           3.3333       PFind                   None            0.00    0.00    None
 35.5800         2.5211           0.0000          0.0000            82.50         2.20          0.1000            0.0000          11.5500       PFind                   None            0.00    0.00    None
 37.5400         2.3939           0.0000          0.0000            55.00         1.47          0.1400            0.0000           4.4000       PFind                   None            0.00    0.00    None
 38.7200         2.3236           0.0000          0.0000            41.67         1.11          0.0400            0.0000           6.6667       PFind                   None            0.00    0.00    None
 39.5000         2.2795           0.0000          0.0000           185.83         4.95          0.0400            0.0000          18.5833       PFind                   None            0.00    0.00    None
 42.5000         2.1253           0.0000          0.0000           150.83         4.02          0.1000            0.0000          12.0667       PFind                   None            0.00    0.00    None
 43.8400         2.0634           0.0000          0.0000            35.83         0.96          0.1600            0.0000           2.8667       PFind                   None            0.00    0.00    None
 44.9800         2.0137           0.0000          0.0000            42.50         1.13          0.1400            0.0000           5.1000       PFind                   None            0.00    0.00    None
 45.8400         1.9779           0.0000          0.0000           216.67         5.78          0.0200            0.0000          21.6667       PFind                   None            0.00    0.00    None
 48.1400         1.8886           0.0000          0.0000            35.00         0.93          0.0800            0.0000           0.7000       PFind                   None            0.00    0.00    None
 50.6400         1.8011           0.0000          0.0000            40.83         1.09          0.1200            0.0000           5.7167       PFind                   None            0.00    0.00    None
 52.6200         1.7379           0.0000          0.0000            47.50         1.27          0.1000            0.0000           2.8500       PFind                   None            0.00    0.00    None
 55.3600         1.6582           0.0000          0.0000            78.33         2.09          0.0800            0.0000           6.2667       PFind                   None            0.00    0.00    None
 60.0000         1.5406           0.0000          0.0000           215.00         5.73          0.1600            0.0000          21.5000       PFind                   None            0.00    0.00    None
 64.1000         1.4516           0.0000          0.0000            38.33         1.02          0.1400            0.0000           3.0667       PFind                   None            0.00    0.00    None
 64.2400         1.4487           0.0000          0.0000            35.00         0.93          0.1000            0.0000           2.8000       PFind                   None            0.00    0.00    None