File: Generating XRD fingerprints/INPUT/Detrital data/15_1_AUG_PF_FILTER.txt
Filename:
	H:\15_1_AUG_FILTER.pk

File Created:
	April 16, 2019 - 04:34 PM

Specimen Id:
	15.1 AUG FILTER

Specimen Name:

Specimen Description:

Comment:
Scan Type: 2Theta Scan
Start Angle: 2 deg.
Stop Angle: 65 deg.
Num Points: 3151
Step Size: 0.02 deg.
Scan Rate: 1.000000
Scan Mode: Continuous
Wavelength: 1.540562
\Kalpha1: 1.540562	\Kalpha2: 1.544390	\Kbeta: 1.392218

Optics:
		Detector:
			 Type: Fixed Slits
		Tube:
			 Type: Fixed Slits

Datas:
Peaks:

Position        Dspace          ESD(P)          Corr.Fact       Intensity       Rel.Int.        FWHM(L)         ESD(L)          Area            Source                  Curve           Strain  CSize   CSize_Source
[deg]           [A]             [deg]           [deg]           [CPS]           [CPS]           [deg]           [deg]           [deg]           [--]                    [--]            [--]    [--]    [--]
  3.7400        23.6052           0.0000          0.0000            30.83         0.62          0.0600            0.0000           1.8500       PFind                   None            0.00    0.00    None
  3.9200        22.5217           0.0000          0.0000            41.67         0.84          0.1200            0.0000           4.1667       PFind                   None            0.00    0.00    None
  4.4200        19.9750           0.0000          0.0000            43.33         0.87          0.1000            0.0000           3.4667       PFind                   None            0.00    0.00    None
  4.7600        18.5490           0.0000          0.0000            30.00         0.60          0.0600            0.0000           1.2000       PFind                   None            0.00    0.00    None
  5.3000        16.6602           0.0000          0.0000            39.17         0.79          0.1000            0.0000           0.7833       PFind                   None            0.00    0.00    None
  5.6800        15.5465           0.0000          0.0000            56.67         1.14          0.1600            0.0000           0.0000       PFind                   None            0.00    0.00    None
  6.2400        14.1525           0.0000          0.0000            38.33         0.77          0.1000            0.0000           3.8333       PFind                   None            0.00    0.00    None
  7.0400        12.5459           0.0000          0.0000            30.00         0.60          0.0400            0.0000           0.0000       PFind                   None            0.00    0.00    None
  8.2600        10.6954           0.0000          0.0000            29.17         0.59          0.0800            0.0000           1.1667       PFind                   None            0.00    0.00    None
  8.9400         9.8834           0.0000          0.0000           132.50         2.66          0.0000            0.0000          15.9000       PFind                   None            0.00    0.00    None
 10.6800         8.2767           0.0000          0.0000            28.33         0.57          0.0800            0.0000           2.2667       PFind                   None            0.00    0.00    None
 12.5400         7.0530           0.0000          0.0000           172.50         3.47          0.0000            0.0000          20.7000       PFind                   None            0.00    0.00    None
 13.5800         6.5151           0.0000          0.0000            33.33         0.67          0.1400            0.0000           2.0000       PFind                   None            0.00    0.00    None
 14.2600         6.2059           0.0000          0.0000            29.17         0.59          0.0400            0.0000           0.5833       PFind                   None            0.00    0.00    None
 17.4200         5.0866           0.0000          0.0000            49.17         0.99          0.1400            0.0000           1.9667       PFind                   None            0.00    0.00    None
 18.7600         4.7262           0.0000          0.0000            75.00         1.51          0.1000            0.0000           7.5000       PFind                   None            0.00    0.00    None
 20.0000         4.4359           0.0000          0.0000            40.00         0.80          0.0600            0.0000           4.0000       PFind                   None            0.00    0.00    None
 22.1800         4.0046           0.0000          0.0000           128.33         2.58          0.1200            0.0000          15.4000       PFind                   None            0.00    0.00    None
 23.7200         3.7479           0.0000          0.0000           464.17         9.33          0.0400            0.0000          64.9833       PFind                   None            0.00    0.00    None
 24.7000         3.6014           0.0000          0.0000           126.67         2.55          0.0600            0.0000          15.2000       PFind                   None            0.00    0.00    None
 25.7800         3.4529           0.0000          0.0000           785.00        15.78          0.0800            0.0000          78.5000       PFind                   None            0.00    0.00    None
 27.6600         3.2224           0.0000          0.0000           191.67         3.85          0.0800            0.0000          30.6667       PFind                   None            0.00    0.00    None
 28.6600         3.1122           0.0000          0.0000            38.33         0.77          0.1000            0.0000           1.5333       PFind                   None            0.00    0.00    None
 30.2400         2.9531           0.0000          0.0000            60.83         1.22          0.1200            0.0000           2.4333       PFind                   None            0.00    0.00    None
 30.6800         2.9117           0.0000          0.0000            47.50         0.95          0.0400            0.0000           3.8000       PFind                   None            0.00    0.00    None
 31.5200         2.8360           0.0000          0.0000            32.50         0.65          0.1400            0.0000           3.2500       PFind                   None            0.00    0.00    None
 32.3400         2.7659           0.0000          0.0000            93.33         1.88          0.0400            0.0000           5.6000       PFind                   None            0.00    0.00    None
 35.6000         2.5198           0.0000          0.0000            50.00         1.01          0.0400            0.0000           8.0000       PFind                   None            0.00    0.00    None
 36.6600         2.4493           0.0000          0.0000           160.00         3.22          0.0000            0.0000          16.0000       PFind                   None            0.00    0.00    None
 38.1800         2.3552           0.0000          0.0000           823.33        16.55          0.0200            0.0000          98.8000       PFind                   None            0.00    0.00    None
 39.1000         2.3019           0.0000          0.0000            28.33         0.57          0.0200            0.0000           2.2667       PFind                   None            0.00    0.00    None
 39.9000         2.2576           0.0000          0.0000            30.83         0.62          0.1000            0.0000           0.0000       PFind                   None            0.00    0.00    None
 41.9200         2.1533           0.0000          0.0000            55.83         1.12          0.1000            0.0000           7.8167       PFind                   None            0.00    0.00    None
 44.3600         2.0404           0.0000          0.0000           431.67         8.68          0.0800            0.0000          34.5333       PFind                   None            0.00    0.00    None
 45.8600         1.9771           0.0000          0.0000           125.00         2.51          0.0800            0.0000          15.0000       PFind                   None            0.00    0.00    None
 49.3400         1.8455           0.0000          0.0000            32.50         0.65          0.0800            0.0000           3.2500       PFind                   None            0.00    0.00    None
 50.2200         1.8152           0.0000          0.0000           164.17         3.30          0.1000            0.0000          26.2667       PFind                   None            0.00    0.00    None
 51.6400         1.7685           0.0000          0.0000            92.50         1.86          0.1000            0.0000           3.7000       PFind                   None            0.00    0.00    None
 55.1000         1.6654           0.0000          0.0000           108.33         2.18          0.0600            0.0000           6.5000       PFind                   None            0.00    0.00    None
 57.8400         1.5928           0.0000          0.0000            33.33         0.67          0.0800            0.0000           1.3333       PFind                   None            0.00    0.00    None
 60.2200         1.5355           0.0000          0.0000            72.50         1.46          0.1000            0.0000           5.8000       PFind                   None            0.00    0.00    None
 64.1000         1.4516           0.0000          0.0000            35.83         0.72          0.1200            0.0000           0.7167       PFind                   None            0.00    0.00    None
 64.6600         1.4403           0.0000          0.0000           165.00         3.32          0.0200            0.0000          13.2000       PFind                   None            0.00    0.00    None