File: Generating XRD fingerprints/INPUT/Detrital data/17_1_SEPT_PF_FILTER.txt
Filename:
	C:\Program Files\Thermo Electron\WinXRD\Datafiles\FIEN\17_1_SEPT_FILTER.pk

File Created:
	April 15, 2019 - 03:24 PM

Specimen Id:
	17.2 SEPT FILTER

Specimen Name:

Specimen Description:

Comment:
Scan Type: 2Theta Scan
Start Angle: 1 deg.
Stop Angle: 65 deg.
Num Points: 3201
Step Size: 0.02 deg.
Scan Rate: 1.000000
Scan Mode: Continuous
Wavelength: 1.540562
\Kalpha1: 1.540562	\Kalpha2: 1.544390	\Kbeta: 1.392218

Optics:
		Detector:
			 Type: Fixed Slits
		Tube:
			 Type: Fixed Slits

Datas:
Peaks:

Position        Dspace          ESD(P)          Corr.Fact       Intensity       Rel.Int.        FWHM(L)         ESD(L)          Area            Source                  Curve           Strain  CSize   CSize_Source
[deg]           [A]             [deg]           [deg]           [CPS]           [CPS]           [deg]           [deg]           [deg]           [--]                    [--]            [--]    [--]    [--]
  2.8000        31.5273           0.0000          0.0000            58.33         1.31          0.1600            0.0000           4.6667       PFind                   None            0.00    0.00    None
  3.0400        29.0388           0.0000          0.0000            64.17         1.44          0.0600            0.0000           0.0000       PFind                   None            0.00    0.00    None
  3.3800        26.1185           0.0000          0.0000            40.00         0.90          0.0600            0.0000           5.6000       PFind                   None            0.00    0.00    None
  3.6400        24.2534           0.0000          0.0000            48.33         1.08          0.0600            0.0000           3.8667       PFind                   None            0.00    0.00    None
  4.0400        21.8530           0.0000          0.0000            74.17         1.66          0.1600            0.0000           0.0000       PFind                   None            0.00    0.00    None
  4.6200        19.1107           0.0000          0.0000            40.83         0.92          0.0400            0.0000           1.6333       PFind                   None            0.00    0.00    None
  4.9000        18.0193           0.0000          0.0000            40.83         0.92          0.1000            0.0000           0.8167       PFind                   None            0.00    0.00    None
  5.3200        16.5976           0.0000          0.0000            36.67         0.82          0.0400            0.0000           0.0000       PFind                   None            0.00    0.00    None
  7.1400        12.3704           0.0000          0.0000            37.50         0.84          0.1400            0.0000           2.2500       PFind                   None            0.00    0.00    None
  8.9800         9.8394           0.0000          0.0000           448.33        10.06          0.0800            0.0000          53.8000       PFind                   None            0.00    0.00    None
  9.5400         9.2631           0.0000          0.0000            38.33         0.86          0.0800            0.0000           3.8333       PFind                   None            0.00    0.00    None
 10.6600         8.2922           0.0000          0.0000            96.67         2.17          0.1400            0.0000           7.7333       PFind                   None            0.00    0.00    None
 12.6400         6.9974           0.0000          0.0000           357.50         8.02          0.0000            0.0000          42.9000       PFind                   None            0.00    0.00    None
 14.0000         6.3205           0.0000          0.0000            49.17         1.10          0.0400            0.0000           5.9000       PFind                   None            0.00    0.00    None
 17.9600         4.9349           0.0000          0.0000           252.50         5.66          0.0200            0.0000          30.3000       PFind                   None            0.00    0.00    None
 18.9200         4.6866           0.0000          0.0000           177.50         3.98          0.0600            0.0000          17.7500       PFind                   None            0.00    0.00    None
 20.9800         4.2308           0.0000          0.0000           646.67        14.51          0.0800            0.0000          51.7333       PFind                   None            0.00    0.00    None
 22.6400         3.9242           0.0000          0.0000            35.83         0.80          0.0400            0.0000           2.1500       PFind                   None            0.00    0.00    None
 23.6800         3.7542           0.0000          0.0000           160.00         3.59          0.1200            0.0000          16.0000       PFind                   None            0.00    0.00    None
 24.4200         3.6421           0.0000          0.0000           111.67         2.51          0.1200            0.0000          13.4000       PFind                   None            0.00    0.00    None
 25.2600         3.5228           0.0000          0.0000           304.17         6.82          0.0400            0.0000          36.5000       PFind                   None            0.00    0.00    None
 26.7800         3.3262           0.0000          0.0000          4457.50       100.00          0.0800            0.0000         356.6000       PFind                   None            0.00    0.00    None
 27.3400         3.2594           0.0000          0.0000            70.00         1.57          0.0800            0.0000           8.4000       PFind                   None            0.00    0.00    None
 28.0800         3.1751           0.0000          0.0000           726.67        16.30          0.0000            0.0000          72.6667       PFind                   None            0.00    0.00    None
 30.0000         2.9761           0.0000          0.0000           111.67         2.51          0.0600            0.0000          15.6333       PFind                   None            0.00    0.00    None
 30.6000         2.9191           0.0000          0.0000            85.83         1.93          0.1000            0.0000           5.1500       PFind                   None            0.00    0.00    None
 31.4000         2.8466           0.0000          0.0000           112.50         2.52          0.1200            0.0000          18.0000       PFind                   None            0.00    0.00    None
 32.3400         2.7659           0.0000          0.0000            69.17         1.55          0.1600            0.0000           6.9167       PFind                   None            0.00    0.00    None
 34.6400         2.5874           0.0000          0.0000            45.83         1.03          0.1400            0.0000           2.7500       PFind                   None            0.00    0.00    None
 35.1400         2.5517           0.0000          0.0000            91.67         2.06          0.0800            0.0000          11.0000       PFind                   None            0.00    0.00    None
 36.2000         2.4794           0.0000          0.0000            85.00         1.91          0.0400            0.0000          10.2000       PFind                   None            0.00    0.00    None
 37.2200         2.4137           0.0000          0.0000            36.67         0.82          0.0800            0.0000           0.0000       PFind                   None            0.00    0.00    None
 37.8000         2.3780           0.0000          0.0000            50.00         1.12          0.0000            0.0000           8.0000       PFind                   None            0.00    0.00    None
 38.9400         2.3110           0.0000          0.0000           480.83        10.79          0.0400            0.0000           9.6167       PFind                   None            0.00    0.00    None
 40.4600         2.2276           0.0000          0.0000            94.17         2.11          0.0800            0.0000           9.4167       PFind                   None            0.00    0.00    None
 42.1000         2.1445           0.0000          0.0000            50.83         1.14          0.1200            0.0000           5.0833       PFind                   None            0.00    0.00    None
 42.8400         2.1092           0.0000          0.0000            38.33         0.86          0.0200            0.0000           6.1333       PFind                   None            0.00    0.00    None
 45.1600         2.0061           0.0000          0.0000            43.33         0.97          0.1000            0.0000           3.4667       PFind                   None            0.00    0.00    None
 48.3000         1.8827           0.0000          0.0000            47.50         1.07          0.0200            0.0000           2.8500       PFind                   None            0.00    0.00    None
 50.7600         1.7971           0.0000          0.0000            53.33         1.20          0.1200            0.0000           6.4000       PFind                   None            0.00    0.00    None
 51.4000         1.7762           0.0000          0.0000            40.83         0.92          0.1000            0.0000           4.0833       PFind                   None            0.00    0.00    None
 52.6600         1.7367           0.0000          0.0000            89.17         2.00          0.0600            0.0000           3.5667       PFind                   None            0.00    0.00    None
 55.1200         1.6648           0.0000          0.0000            59.17         1.33          0.1400            0.0000           3.5500       PFind                   None            0.00    0.00    None
 55.9600         1.6418           0.0000          0.0000            52.50         1.18          0.1600            0.0000           8.4000       PFind                   None            0.00    0.00    None
 60.0800         1.5387           0.0000          0.0000           191.67         4.30          0.1400            0.0000          15.3333       PFind                   None            0.00    0.00    None
 61.0800         1.5159           0.0000          0.0000            40.83         0.92          0.1200            0.0000           1.6333       PFind                   None            0.00    0.00    None
 63.2200         1.4696           0.0000          0.0000            40.83         0.92          0.0800            0.0000           1.6333       PFind                   None            0.00    0.00    None
 64.6800         1.4399           0.0000          0.0000            45.83         1.03          0.1000            0.0000           0.9167       PFind                   None            0.00    0.00    None