File: Generating XRD fingerprints/INPUT/Detrital data/1_2_SEPT_PF_FILTER.txt
Filename:
	C:\Program Files\Thermo Electron\WinXRD\Datafiles\FIEN\1_2_SEPT_FT.pk

File Created:
	April 15, 2019 - 02:55 PM

Specimen Id:
	1.2 SEPT FT

Specimen Name:

Specimen Description:

Comment:
Scan Type: 2Theta Scan
Start Angle: 1 deg.
Stop Angle: 65 deg.
Num Points: 3201
Step Size: 0.02 deg.
Scan Rate: 1.000000
Scan Mode: Continuous
Wavelength: 1.540562
\Kalpha1: 1.540562	\Kalpha2: 1.544390	\Kbeta: 1.392218

Optics:
		Detector:
			 Type: Fixed Slits
		Tube:
			 Type: Fixed Slits

Datas:
Peaks:

Position        Dspace          ESD(P)          Corr.Fact       Intensity       Rel.Int.        FWHM(L)         ESD(L)          Area            Source                  Curve           Strain  CSize   CSize_Source
[deg]           [A]             [deg]           [deg]           [CPS]           [CPS]           [deg]           [deg]           [deg]           [--]                    [--]            [--]    [--]    [--]
  2.6400        33.4377           0.0000          0.0000            80.00         5.30          0.1400            0.0000           3.2000       PFind                   None            0.00    0.00    None
  2.9800        29.6234           0.0000          0.0000            77.50         5.14          0.1200            0.0000           4.6500       PFind                   None            0.00    0.00    None
  3.2000        27.5872           0.0000          0.0000            50.83         3.37          0.1600            0.0000           3.0500       PFind                   None            0.00    0.00    None
  3.4600        25.5148           0.0000          0.0000            42.50         2.82          0.1400            0.0000           3.4000       PFind                   None            0.00    0.00    None
  4.0800        21.6388           0.0000          0.0000            43.33         2.87          0.0600            0.0000           3.4667       PFind                   None            0.00    0.00    None
  4.4200        19.9750           0.0000          0.0000            37.50         2.49          0.0600            0.0000           0.7500       PFind                   None            0.00    0.00    None
  6.2800        14.0624           0.0000          0.0000           163.33        10.83          0.1000            0.0000          22.8667       PFind                   None            0.00    0.00    None
  6.7400        13.1037           0.0000          0.0000            66.67         4.42          0.0800            0.0000           8.0000       PFind                   None            0.00    0.00    None
  8.3200        10.6184           0.0000          0.0000            60.00         3.98          0.0400            0.0000           1.2000       PFind                   None            0.00    0.00    None
  9.2200         9.5838           0.0000          0.0000            71.67         4.75          0.1200            0.0000          10.0333       PFind                   None            0.00    0.00    None
 10.5600         8.3705           0.0000          0.0000           120.83         8.01          0.1200            0.0000          12.0833       PFind                   None            0.00    0.00    None
 12.5400         7.0530           0.0000          0.0000           619.17        41.05          0.0600            0.0000          74.3000       PFind                   None            0.00    0.00    None
 15.0200         5.8935           0.0000          0.0000            37.50         2.49          0.0600            0.0000           3.7500       PFind                   None            0.00    0.00    None
 18.6000         4.7665           0.0000          0.0000            94.17         6.24          0.1000            0.0000          15.0667       PFind                   None            0.00    0.00    None
 19.9200         4.4535           0.0000          0.0000            36.67         2.43          0.0600            0.0000           5.8667       PFind                   None            0.00    0.00    None
 22.0600         4.0261           0.0000          0.0000           240.00        15.91          0.0000            0.0000          19.2000       PFind                   None            0.00    0.00    None
 23.0400         3.8570           0.0000          0.0000            56.67         3.76          0.1400            0.0000           5.6667       PFind                   None            0.00    0.00    None
 23.9000         3.7201           0.0000          0.0000            93.33         6.19          0.1200            0.0000           3.7333       PFind                   None            0.00    0.00    None
 24.6400         3.6100           0.0000          0.0000           328.33        21.77          0.1200            0.0000          52.5333       PFind                   None            0.00    0.00    None
 25.5000         3.4902           0.0000          0.0000            95.83         6.35          0.1000            0.0000          15.3333       PFind                   None            0.00    0.00    None
 26.9000         3.3117           0.0000          0.0000          1190.00        78.90          0.0800            0.0000         166.6000       PFind                   None            0.00    0.00    None
 27.7600         3.2110           0.0000          0.0000           378.33        25.08          0.0400            0.0000          37.8333       PFind                   None            0.00    0.00    None
 28.6800         3.1100           0.0000          0.0000           130.00         8.62          0.1000            0.0000          20.8000       PFind                   None            0.00    0.00    None
 30.2200         2.9550           0.0000          0.0000           104.17         6.91          0.0800            0.0000           2.0833       PFind                   None            0.00    0.00    None
 31.2400         2.8608           0.0000          0.0000           110.83         7.35          0.1000            0.0000          11.0833       PFind                   None            0.00    0.00    None
 31.8800         2.8048           0.0000          0.0000            41.67         2.76          0.0800            0.0000           0.0000       PFind                   None            0.00    0.00    None
 32.2400         2.7743           0.0000          0.0000            62.50         4.14          0.0400            0.0000           8.7500       PFind                   None            0.00    0.00    None
 33.9400         2.6391           0.0000          0.0000            49.17         3.26          0.0600            0.0000           1.9667       PFind                   None            0.00    0.00    None
 34.7200         2.5816           0.0000          0.0000            63.33         4.20          0.1400            0.0000           2.5333       PFind                   None            0.00    0.00    None
 35.7000         2.5129           0.0000          0.0000            85.83         5.69          0.1600            0.0000           6.8667       PFind                   None            0.00    0.00    None
 36.5600         2.4558           0.0000          0.0000           147.50         9.78          0.1600            0.0000          14.7500       PFind                   None            0.00    0.00    None
 38.1200         2.3588           0.0000          0.0000           997.50        66.13          0.0600            0.0000          59.8500       PFind                   None            0.00    0.00    None
 40.3400         2.2339           0.0000          0.0000            62.50         4.14          0.1000            0.0000           5.0000       PFind                   None            0.00    0.00    None
 42.4600         2.1272           0.0000          0.0000            92.50         6.13          0.0400            0.0000          11.1000       PFind                   None            0.00    0.00    None
 45.6200         1.9869           0.0000          0.0000           340.83        22.60          0.1400            0.0000          54.5333       PFind                   None            0.00    0.00    None
 48.1800         1.8872           0.0000          0.0000           109.17         7.24          0.1600            0.0000           6.5500       PFind                   None            0.00    0.00    None
 50.1800         1.8165           0.0000          0.0000           215.00        14.25          0.1400            0.0000          12.9000       PFind                   None            0.00    0.00    None
 54.8800         1.6715           0.0000          0.0000            75.83         5.03          0.1400            0.0000           6.0667       PFind                   None            0.00    0.00    None
 55.3600         1.6582           0.0000          0.0000            38.33         2.54          0.0600            0.0000           5.3667       PFind                   None            0.00    0.00    None
 59.2000         1.5595           0.0000          0.0000            62.50         4.14          0.1400            0.0000           3.7500       PFind                   None            0.00    0.00    None
 60.0000         1.5406           0.0000          0.0000           141.67         9.39          0.1000            0.0000           8.5000       PFind                   None            0.00    0.00    None
 64.4400         1.4447           0.0000          0.0000           401.67        26.63          0.0200            0.0000          24.1000       PFind                   None            0.00    0.00    None
 64.6200         1.4411           0.0000          0.0000           226.67        15.03          0.0200            0.0000          13.6000       PFind                   None            0.00    0.00    None