File: Generating XRD fingerprints/INPUT/Detrital data/21_2_AUG_PF_FILTER.txt
Filename:
	C:\Program Files\Thermo Electron\WinXRD\Datafiles\FIEN\21_2_AUG_FT.pk

File Created:
	April 15, 2019 - 03:31 PM

Specimen Id:
	21.2 AUG FT

Specimen Name:

Specimen Description:

Comment:
Scan Type: 2Theta Scan
Start Angle: 1 deg.
Stop Angle: 65 deg.
Num Points: 3201
Step Size: 0.02 deg.
Scan Rate: 1.000000
Scan Mode: Continuous
Wavelength: 1.540562
\Kalpha1: 1.540562	\Kalpha2: 1.544390	\Kbeta: 1.392218

Optics:
		Detector:
			 Type: Fixed Slits
		Tube:
			 Type: Fixed Slits

Datas:
Peaks:

Position        Dspace          ESD(P)          Corr.Fact       Intensity       Rel.Int.        FWHM(L)         ESD(L)          Area            Source                  Curve           Strain  CSize   CSize_Source
[deg]           [A]             [deg]           [deg]           [CPS]           [CPS]           [deg]           [deg]           [deg]           [--]                    [--]            [--]    [--]    [--]
  2.8400        31.0834           0.0000          0.0000            57.50         1.20          0.0200            0.0000           1.1500       PFind                   None            0.00    0.00    None
  3.2200        27.4159           0.0000          0.0000            68.33         1.43          0.0000            0.0000           5.4667       PFind                   None            0.00    0.00    None
  3.5800        24.6598           0.0000          0.0000            58.33         1.22          0.0200            0.0000           5.8333       PFind                   None            0.00    0.00    None
  4.1600        21.2229           0.0000          0.0000            51.67         1.08          0.0800            0.0000           4.1333       PFind                   None            0.00    0.00    None
  4.6600        18.9468           0.0000          0.0000            48.33         1.01          0.1400            0.0000           0.0000       PFind                   None            0.00    0.00    None
  4.9800        17.7300           0.0000          0.0000            37.50         0.78          0.1600            0.0000           1.5000       PFind                   None            0.00    0.00    None
  5.1800        17.0459           0.0000          0.0000            35.00         0.73          0.1200            0.0000           4.9000       PFind                   None            0.00    0.00    None
  5.8200        15.1728           0.0000          0.0000            28.33         0.59          0.0600            0.0000           2.2667       PFind                   None            0.00    0.00    None
  6.4400        13.7134           0.0000          0.0000            30.00         0.63          0.1400            0.0000           2.4000       PFind                   None            0.00    0.00    None
  6.8400        12.9123           0.0000          0.0000            38.33         0.80          0.1400            0.0000           0.7667       PFind                   None            0.00    0.00    None
  7.1600        12.3359           0.0000          0.0000            26.67         0.56          0.0800            0.0000           0.5333       PFind                   None            0.00    0.00    None
  7.5200        11.7462           0.0000          0.0000            39.17         0.82          0.0000            0.0000           3.1333       PFind                   None            0.00    0.00    None
  7.7800        11.3542           0.0000          0.0000            31.67         0.66          0.1200            0.0000           2.5333       PFind                   None            0.00    0.00    None
  8.1400        10.8528           0.0000          0.0000            35.83         0.75          0.0800            0.0000           5.0167       PFind                   None            0.00    0.00    None
  8.8000        10.0403           0.0000          0.0000           500.00        10.46          0.1000            0.0000          60.0000       PFind                   None            0.00    0.00    None
  9.6400         9.1672           0.0000          0.0000            26.67         0.56          0.0600            0.0000           1.0667       PFind                   None            0.00    0.00    None
  9.9600         8.8734           0.0000          0.0000            30.83         0.64          0.0400            0.0000           1.8500       PFind                   None            0.00    0.00    None
 10.9400         8.0806           0.0000          0.0000            30.83         0.64          0.1400            0.0000           0.6167       PFind                   None            0.00    0.00    None
 12.1600         7.2725           0.0000          0.0000           443.33         9.27          0.0600            0.0000          62.0667       PFind                   None            0.00    0.00    None
 12.9400         6.8358           0.0000          0.0000            34.17         0.71          0.0800            0.0000           0.0000       PFind                   None            0.00    0.00    None
 13.2400         6.6816           0.0000          0.0000            25.00         0.52          0.1000            0.0000           3.0000       PFind                   None            0.00    0.00    None
 13.7800         6.4210           0.0000          0.0000            34.17         0.71          0.0000            0.0000           0.0000       PFind                   None            0.00    0.00    None
 17.7800         4.9844           0.0000          0.0000           134.17         2.81          0.0800            0.0000          18.7833       PFind                   None            0.00    0.00    None
 18.7600         4.7262           0.0000          0.0000            67.50         1.41          0.0800            0.0000           8.1000       PFind                   None            0.00    0.00    None
 24.5800         3.6187           0.0000          0.0000           151.67         3.17          0.0000            0.0000          24.2667       PFind                   None            0.00    0.00    None
 25.1200         3.5421           0.0000          0.0000            83.33         1.74          0.1200            0.0000          11.6667       PFind                   None            0.00    0.00    None
 25.9800         3.4268           0.0000          0.0000            20.83         0.44          0.1200            0.0000           0.8333       PFind                   None            0.00    0.00    None
 27.7200         3.2155           0.0000          0.0000            50.83         1.06          0.0400            0.0000           5.0833       PFind                   None            0.00    0.00    None
 28.6200         3.1164           0.0000          0.0000            30.83         0.64          0.1600            0.0000           1.8500       PFind                   None            0.00    0.00    None
 34.2800         2.6137           0.0000          0.0000            73.33         1.53          0.1400            0.0000           5.8667       PFind                   None            0.00    0.00    None
 36.4800         2.4610           0.0000          0.0000            63.33         1.32          0.1600            0.0000           6.3333       PFind                   None            0.00    0.00    None
 38.6600         2.3271           0.0000          0.0000            29.17         0.61          0.1200            0.0000           2.3333       PFind                   None            0.00    0.00    None
 39.8000         2.2630           0.0000          0.0000            29.17         0.61          0.1000            0.0000           1.1667       PFind                   None            0.00    0.00    None
 42.3400         2.1329           0.0000          0.0000            34.17         0.71          0.0200            0.0000           4.7833       PFind                   None            0.00    0.00    None
 45.5400         1.9902           0.0000          0.0000            60.83         1.27          0.0800            0.0000           9.7333       PFind                   None            0.00    0.00    None
 61.4400         1.5079           0.0000          0.0000            25.83         0.54          0.0600            0.0000           2.5833       PFind                   None            0.00    0.00    None
 64.5800         1.4419           0.0000          0.0000           736.67        15.41          0.1000            0.0000          88.4000       PFind                   None            0.00    0.00    None