File: Generating XRD fingerprints/INPUT/Detrital data/28_7_12_08_2_PF_FILTER.txt
Filename:
	C:\Program Files\Thermo Electron\WinXRD\Datafiles\FIEN\28_7_12_08_2_FILTER.pk

File Created:
	April 15, 2019 - 03:49 PM

Specimen Id:
	28/7 12:08 2 FILTER

Specimen Name:

Specimen Description:

Comment:
Scan Type: 2Theta Scan
Start Angle: 1 deg.
Stop Angle: 65 deg.
Num Points: 3201
Step Size: 0.02 deg.
Scan Rate: 1.000000
Scan Mode: Continuous
Wavelength: 1.540562
\Kalpha1: 1.540562	\Kalpha2: 1.544390	\Kbeta: 1.392218

Optics:
		Detector:
			 Type: Fixed Slits
		Tube:
			 Type: Fixed Slits

Datas:
Peaks:

Position        Dspace          ESD(P)          Corr.Fact       Intensity       Rel.Int.        FWHM(L)         ESD(L)          Area            Source                  Curve           Strain  CSize   CSize_Source
[deg]           [A]             [deg]           [deg]           [CPS]           [CPS]           [deg]           [deg]           [deg]           [--]                    [--]            [--]    [--]    [--]
  2.9000        30.4404           0.0000          0.0000            75.00         2.85          0.1000            0.0000          10.5000       PFind                   None            0.00    0.00    None
  3.1800        27.7607           0.0000          0.0000            58.33         2.22          0.0200            0.0000           1.1667       PFind                   None            0.00    0.00    None
  3.3600        26.2739           0.0000          0.0000            46.67         1.78          0.0800            0.0000           5.6000       PFind                   None            0.00    0.00    None
  3.7200        23.7320           0.0000          0.0000            53.33         2.03          0.1400            0.0000           8.5333       PFind                   None            0.00    0.00    None
  3.8800        22.7538           0.0000          0.0000            58.33         2.22          0.0600            0.0000           0.0000       PFind                   None            0.00    0.00    None
  4.2400        20.8226           0.0000          0.0000            45.00         1.71          0.0600            0.0000           0.9000       PFind                   None            0.00    0.00    None
  4.9400        17.8735           0.0000          0.0000            46.67         1.78          0.0000            0.0000           3.7333       PFind                   None            0.00    0.00    None
  6.1800        14.2897           0.0000          0.0000           123.33         4.69          0.1000            0.0000          17.2667       PFind                   None            0.00    0.00    None
  7.0600        12.5104           0.0000          0.0000            50.83         1.93          0.0600            0.0000           4.0667       PFind                   None            0.00    0.00    None
 12.1200         7.2964           0.0000          0.0000           227.50         8.66          0.0200            0.0000          18.2000       PFind                   None            0.00    0.00    None
 13.6200         6.4960           0.0000          0.0000            59.17         2.25          0.1000            0.0000           3.5500       PFind                   None            0.00    0.00    None
 18.7600         4.7262           0.0000          0.0000            72.50         2.76          0.1400            0.0000           7.2500       PFind                   None            0.00    0.00    None
 22.0200         4.0333           0.0000          0.0000           146.67         5.58          0.1000            0.0000          14.6667       PFind                   None            0.00    0.00    None
 23.4800         3.7857           0.0000          0.0000            56.67         2.16          0.1200            0.0000           6.8000       PFind                   None            0.00    0.00    None
 24.1200         3.6867           0.0000          0.0000           240.00         9.13          0.0800            0.0000          19.2000       PFind                   None            0.00    0.00    None
 25.1200         3.5421           0.0000          0.0000           125.83         4.79          0.1000            0.0000          17.6167       PFind                   None            0.00    0.00    None
 26.5800         3.3508           0.0000          0.0000          2628.33       100.00          0.1400            0.0000         315.4000       PFind                   None            0.00    0.00    None
 27.8400         3.2019           0.0000          0.0000           443.33        16.87          0.0600            0.0000          62.0667       PFind                   None            0.00    0.00    None
 28.5400         3.1250           0.0000          0.0000            45.00         1.71          0.0400            0.0000           2.7000       PFind                   None            0.00    0.00    None
 30.4200         2.9360           0.0000          0.0000            69.17         2.63          0.0800            0.0000           5.5333       PFind                   None            0.00    0.00    None
 31.5400         2.8342           0.0000          0.0000            61.67         2.35          0.1400            0.0000           9.8667       PFind                   None            0.00    0.00    None
 34.9200         2.5673           0.0000          0.0000            50.83         1.93          0.0600            0.0000           5.0833       PFind                   None            0.00    0.00    None
 36.4800         2.4610           0.0000          0.0000           445.00        16.93          0.1200            0.0000          17.8000       PFind                   None            0.00    0.00    None
 38.4000         2.3422           0.0000          0.0000            58.33         2.22          0.0400            0.0000           3.5000       PFind                   None            0.00    0.00    None
 39.4200         2.2839           0.0000          0.0000           134.17         5.10          0.1000            0.0000          16.1000       PFind                   None            0.00    0.00    None
 42.3800         2.1310           0.0000          0.0000            90.00         3.42          0.1200            0.0000          10.8000       PFind                   None            0.00    0.00    None
 45.5200         1.9910           0.0000          0.0000           206.67         7.86          0.0800            0.0000          28.9333       PFind                   None            0.00    0.00    None
 46.6000         1.9474           0.0000          0.0000            45.83         1.74          0.0800            0.0000           2.7500       PFind                   None            0.00    0.00    None
 50.5200         1.8051           0.0000          0.0000           129.17         4.91          0.1400            0.0000           7.7500       PFind                   None            0.00    0.00    None
 54.8400         1.6727           0.0000          0.0000            66.67         2.54          0.0600            0.0000           6.6667       PFind                   None            0.00    0.00    None
 59.5400         1.5514           0.0000          0.0000            91.67         3.49          0.0800            0.0000           5.5000       PFind                   None            0.00    0.00    None
 59.9000         1.5429           0.0000          0.0000           227.50         8.66          0.0000            0.0000          18.2000       PFind                   None            0.00    0.00    None
 64.0000         1.4536           0.0000          0.0000            60.00         2.28          0.0400            0.0000           8.4000       PFind                   None            0.00    0.00    None
 64.3600         1.4463           0.0000          0.0000           204.17         7.77          0.1600            0.0000          12.2500       PFind                   None            0.00    0.00    None
 64.5400         1.4427           0.0000          0.0000           105.00         3.99          0.1200            0.0000           4.2000       PFind                   None            0.00    0.00    None