File: Generating XRD fingerprints/INPUT/Detrital data/4_1_AUG_PF_RT.txt
Filename:
	C:\Program Files\Thermo Electron\WinXRD\Datafiles\FIEN\4_1_AUG_P_RT.pk

File Created:
	March 04, 2019 - 05:05 AM

Specimen Id:
	4.1 AUG P FT

Specimen Name:

Specimen Description:

Comment:
Scan Type: 2Theta Scan
Start Angle: 1 deg.
Stop Angle: 65 deg.
Num Points: 3201
Step Size: 0.02 deg.
Scan Rate: 1.000000
Scan Mode: Continuous
Wavelength: 1.540562
\Kalpha1: 1.540562	\Kalpha2: 1.544390	\Kbeta: 1.392218

Optics:
		Detector:
			 Type: Fixed Slits
		Tube:
			 Type: Fixed Slits

Datas:
Peaks:

Position        Dspace          ESD(P)          Corr.Fact       Intensity       Rel.Int.        FWHM(L)         ESD(L)          Area            Source                  Curve           Strain  CSize   CSize_Source
[deg]           [A]             [deg]           [deg]           [CPS]           [CPS]           [deg]           [deg]           [deg]           [--]                    [--]            [--]    [--]    [--]
  2.8200        31.3038           0.0000          0.0000            50.00         1.56          0.1200            0.0000           6.0000       PFind                   None            0.00    0.00    None
  3.0000        29.4259           0.0000          0.0000            56.67         1.77          0.1600            0.0000           2.2667       PFind                   None            0.00    0.00    None
  3.2000        27.5872           0.0000          0.0000            62.50         1.95          0.0800            0.0000           2.5000       PFind                   None            0.00    0.00    None
  3.5200        25.0800           0.0000          0.0000            52.50         1.64          0.1200            0.0000           2.1000       PFind                   None            0.00    0.00    None
  4.0400        21.8530           0.0000          0.0000            45.00         1.41          0.0400            0.0000           1.8000       PFind                   None            0.00    0.00    None
  4.5400        19.4473           0.0000          0.0000            45.83         1.43          0.1200            0.0000           4.5833       PFind                   None            0.00    0.00    None
  4.8000        18.3945           0.0000          0.0000            49.17         1.54          0.1600            0.0000           0.9833       PFind                   None            0.00    0.00    None
  5.0600        17.4499           0.0000          0.0000            45.00         1.41          0.1200            0.0000           1.8000       PFind                   None            0.00    0.00    None
  5.5400        15.9390           0.0000          0.0000            36.67         1.15          0.0600            0.0000           2.9333       PFind                   None            0.00    0.00    None
  6.2200        14.1979           0.0000          0.0000            60.83         1.90          0.0600            0.0000           7.3000       PFind                   None            0.00    0.00    None
  7.4800        11.8089           0.0000          0.0000            37.50         1.17          0.0800            0.0000           1.5000       PFind                   None            0.00    0.00    None
  9.4000         9.4007           0.0000          0.0000            41.67         1.30          0.1600            0.0000           0.8333       PFind                   None            0.00    0.00    None
 10.4800         8.4342           0.0000          0.0000           236.67         7.39          0.1000            0.0000           9.4667       PFind                   None            0.00    0.00    None
 12.3400         7.1668           0.0000          0.0000            58.33         1.82          0.0600            0.0000           5.8333       PFind                   None            0.00    0.00    None
 13.3600         6.6219           0.0000          0.0000            39.17         1.22          0.0600            0.0000           1.5667       PFind                   None            0.00    0.00    None
 13.8000         6.4117           0.0000          0.0000            47.50         1.48          0.0800            0.0000           2.8500       PFind                   None            0.00    0.00    None
 18.7800         4.7212           0.0000          0.0000            52.50         1.64          0.1400            0.0000           2.1000       PFind                   None            0.00    0.00    None
 20.8400         4.2589           0.0000          0.0000           420.83        13.14          0.0400            0.0000          42.0833       PFind                   None            0.00    0.00    None
 23.5600         3.7730           0.0000          0.0000            96.67         3.02          0.0200            0.0000           9.6667       PFind                   None            0.00    0.00    None
 24.2400         3.6687           0.0000          0.0000            51.67         1.61          0.0800            0.0000           8.2667       PFind                   None            0.00    0.00    None
 25.1400         3.5394           0.0000          0.0000            60.00         1.87          0.0600            0.0000           8.4000       PFind                   None            0.00    0.00    None
 26.6200         3.3459           0.0000          0.0000          3201.67       100.00          0.1200            0.0000         256.1333       PFind                   None            0.00    0.00    None
 27.0600         3.2924           0.0000          0.0000           517.50        16.16          0.0400            0.0000          41.4000       PFind                   None            0.00    0.00    None
 27.9200         3.1929           0.0000          0.0000           242.50         7.57          0.0000            0.0000          33.9500       PFind                   None            0.00    0.00    None
 28.5600         3.1228           0.0000          0.0000            43.33         1.35          0.1600            0.0000           4.3333       PFind                   None            0.00    0.00    None
 29.9600         2.9800           0.0000          0.0000            48.33         1.51          0.0800            0.0000           3.8667       PFind                   None            0.00    0.00    None
 30.2000         2.9569           0.0000          0.0000            42.50         1.33          0.1200            0.0000           6.8000       PFind                   None            0.00    0.00    None
 31.2800         2.8572           0.0000          0.0000            38.33         1.20          0.0800            0.0000           5.3667       PFind                   None            0.00    0.00    None
 34.5000         2.5975           0.0000          0.0000            37.50         1.17          0.0800            0.0000           1.5000       PFind                   None            0.00    0.00    None
 34.9600         2.5644           0.0000          0.0000            43.33         1.35          0.0600            0.0000           4.3333       PFind                   None            0.00    0.00    None
 36.0800         2.4873           0.0000          0.0000            51.67         1.61          0.1200            0.0000           2.0667       PFind                   None            0.00    0.00    None
 37.5000         2.3963           0.0000          0.0000            41.67         1.30          0.0800            0.0000           0.8333       PFind                   None            0.00    0.00    None
 39.4200         2.2839           0.0000          0.0000           140.00         4.37          0.1200            0.0000          14.0000       PFind                   None            0.00    0.00    None
 42.4200         2.1291           0.0000          0.0000           187.50         5.86          0.0200            0.0000          11.2500       PFind                   None            0.00    0.00    None
 43.7800         2.0661           0.0000          0.0000            87.50         2.73          0.0400            0.0000          10.5000       PFind                   None            0.00    0.00    None
 48.7200         1.8675           0.0000          0.0000            49.17         1.54          0.1000            0.0000           0.9833       PFind                   None            0.00    0.00    None
 50.5800         1.8031           0.0000          0.0000            94.17         2.94          0.0200            0.0000          15.0667       PFind                   None            0.00    0.00    None
 51.1200         1.7853           0.0000          0.0000           163.33         5.10          0.0400            0.0000           9.8000       PFind                   None            0.00    0.00    None
 54.8600         1.6721           0.0000          0.0000           146.67         4.58          0.0200            0.0000           8.8000       PFind                   None            0.00    0.00    None
 55.3200         1.6593           0.0000          0.0000            65.83         2.06          0.0600            0.0000           5.2667       PFind                   None            0.00    0.00    None
 58.6600         1.5725           0.0000          0.0000            42.50         1.33          0.1200            0.0000           3.4000       PFind                   None            0.00    0.00    None
 60.1000         1.5382           0.0000          0.0000           243.33         7.60          0.0400            0.0000          19.4667       PFind                   None            0.00    0.00    None
 61.6400         1.5034           0.0000          0.0000            44.17         1.38          0.0200            0.0000           4.4167       PFind                   None            0.00    0.00    None
 63.9800         1.4540           0.0000          0.0000            50.00         1.56          0.1400            0.0000           3.0000       PFind                   None            0.00    0.00    None