File: Generating XRD fingerprints/INPUT/Detrital data/4_22_pf_FT.txt
Filename:
	C:\Program Files\Thermo Electron\WinXRD\Datafiles\FIEN2\FIEN\4_22_FT.pk

File Created:
	February 25, 2021 - 10:39 AM

Specimen Id:
	4.22 FILTRE RT

Specimen Name:

Specimen Description:

Comment:
Scan Type: 2Theta Scan
Start Angle: 1 deg.
Stop Angle: 65 deg.
Num Points: 3201
Step Size: 0.02 deg.
Scan Rate: 1.000000
Scan Mode: Continuous
Wavelength: 1.540562
\Kalpha1: 1.540562	\Kalpha2: 1.544390	\Kbeta: 1.392218

Optics:
		Detector:
			 Type: Fixed Slits
		Tube:
			 Type: Fixed Slits

Datas:
Peaks:

Position        Dspace          ESD(P)          Corr.Fact       Intensity       Rel.Int.        FWHM(L)         ESD(L)          Area            Source                  Curve           Strain  CSize   CSize_Source
[deg]           [A]             [deg]           [deg]           [CPS]           [CPS]           [deg]           [deg]           [deg]           [--]                    [--]            [--]    [--]    [--]
 58.6200         1.5735           0.0000          0.0000            25.83         0.59          0.1000            0.0000           3.1000       PFind                   None            0.00    0.00    None
 16.9800         5.2174           0.0000          0.0000            25.83         0.59          0.0800            0.0000           1.5500       PFind                   None            0.00    0.00    None
 58.1600         1.5848           0.0000          0.0000            25.83         0.59          0.0800            0.0000           2.5833       PFind                   None            0.00    0.00    None
 46.3000         1.9593           0.0000          0.0000            26.67         0.61          0.0000            0.0000           0.5333       PFind                   None            0.00    0.00    None
 10.7200         8.2459           0.0000          0.0000            27.50         0.63          0.0000            0.0000           0.0000       PFind                   None            0.00    0.00    None
 16.5200         5.3616           0.0000          0.0000            27.50         0.63          0.0800            0.0000           0.0000       PFind                   None            0.00    0.00    None
 48.1400         1.8886           0.0000          0.0000            28.33         0.64          0.0800            0.0000           1.1333       PFind                   None            0.00    0.00    None
 42.9200         2.1054           0.0000          0.0000            30.00         0.68          0.0600            0.0000           1.2000       PFind                   None            0.00    0.00    None
 11.5400         7.6618           0.0000          0.0000            31.67         0.72          0.1000            0.0000           0.6333       PFind                   None            0.00    0.00    None
 22.2800         3.9868           0.0000          0.0000            31.67         0.72          0.1600            0.0000           5.0667       PFind                   None            0.00    0.00    None
 50.5000         1.8058           0.0000          0.0000            32.50         0.74          0.0600            0.0000           5.2000       PFind                   None            0.00    0.00    None
 33.3200         2.6868           0.0000          0.0000            34.17         0.78          0.0400            0.0000           0.6833       PFind                   None            0.00    0.00    None
 38.6400         2.3282           0.0000          0.0000            36.67         0.83          0.0800            0.0000           2.9333       PFind                   None            0.00    0.00    None
  8.1600        10.8263           0.0000          0.0000            39.17         0.89          0.1000            0.0000           3.1333       PFind                   None            0.00    0.00    None
  6.6400        13.3008           0.0000          0.0000            40.00         0.91          0.1200            0.0000           1.6000       PFind                   None            0.00    0.00    None
 55.2200         1.6621           0.0000          0.0000            40.83         0.93          0.1400            0.0000           1.6333       PFind                   None            0.00    0.00    None
 53.7800         1.7031           0.0000          0.0000            44.17         1.00          0.0400            0.0000           1.7667       PFind                   None            0.00    0.00    None
  6.7400        13.1037           0.0000          0.0000            45.83         1.04          0.1400            0.0000           1.8333       PFind                   None            0.00    0.00    None
 10.1400         8.7163           0.0000          0.0000            48.33         1.10          0.1200            0.0000           0.9667       PFind                   None            0.00    0.00    None
  5.2600        16.7868           0.0000          0.0000            51.67         1.18          0.1000            0.0000           5.1667       PFind                   None            0.00    0.00    None
 13.8600         6.3841           0.0000          0.0000            56.67         1.29          0.1000            0.0000           1.1333       PFind                   None            0.00    0.00    None
  9.7200         9.0919           0.0000          0.0000            58.33         1.33          0.1200            0.0000           1.1667       PFind                   None            0.00    0.00    None
  4.8000        18.3945           0.0000          0.0000            62.50         1.42          0.1200            0.0000           1.2500       PFind                   None            0.00    0.00    None
 18.2800         4.8492           0.0000          0.0000            65.00         1.48          0.0800            0.0000          10.4000       PFind                   None            0.00    0.00    None
 35.4400         2.5308           0.0000          0.0000            66.67         1.52          0.1200            0.0000           8.0000       PFind                   None            0.00    0.00    None
 31.1400         2.8697           0.0000          0.0000            69.17         1.57          0.1200            0.0000           9.6833       PFind                   None            0.00    0.00    None
  5.3600        16.4739           0.0000          0.0000            70.83         1.61          0.0800            0.0000           0.0000       PFind                   None            0.00    0.00    None
 10.3600         8.5317           0.0000          0.0000            75.00         1.71          0.1200            0.0000           6.0000       PFind                   None            0.00    0.00    None
 13.5600         6.5246           0.0000          0.0000            80.00         1.82          0.0000            0.0000           4.8000       PFind                   None            0.00    0.00    None
 37.3400         2.4062           0.0000          0.0000            85.00         1.93          0.1000            0.0000          10.2000       PFind                   None            0.00    0.00    None
 22.4200         3.9622           0.0000          0.0000            87.50         1.99          0.0200            0.0000           8.7500       PFind                   None            0.00    0.00    None
 36.0000         2.4927           0.0000          0.0000           100.83         2.29          0.0400            0.0000          12.1000       PFind                   None            0.00    0.00    None
  3.0400        29.0388           0.0000          0.0000           105.00         2.39          0.1000            0.0000           6.3000       PFind                   None            0.00    0.00    None
 54.7200         1.6761           0.0000          0.0000           126.67         2.88          0.0400            0.0000          10.1333       PFind                   None            0.00    0.00    None
 32.9800         2.7137           0.0000          0.0000           139.17         3.17          0.0800            0.0000           8.3500       PFind                   None            0.00    0.00    None
 24.4600         3.6362           0.0000          0.0000           147.50         3.36          0.0200            0.0000          23.6000       PFind                   None            0.00    0.00    None
 34.9200         2.5673           0.0000          0.0000           161.67         3.68          0.1200            0.0000          16.1667       PFind                   None            0.00    0.00    None
 30.6400         2.9154           0.0000          0.0000           196.67         4.47          0.0600            0.0000          19.6667       PFind                   None            0.00    0.00    None
 13.7000         6.4583           0.0000          0.0000           214.17         4.87          0.0000            0.0000          17.1333       PFind                   None            0.00    0.00    None
 36.4200         2.4649           0.0000          0.0000           225.00         5.12          0.0400            0.0000          18.0000       PFind                   None            0.00    0.00    None
 17.6800         5.0124           0.0000          0.0000           405.00         9.21          0.1600            0.0000          48.6000       PFind                   None            0.00    0.00    None
 26.2800         3.3884           0.0000          0.0000           479.17        10.90          0.0600            0.0000          47.9167       PFind                   None            0.00    0.00    None
 45.4200         1.9952           0.0000          0.0000           550.00        12.51          0.0400            0.0000          88.0000       PFind                   None            0.00    0.00    None
 64.5000         1.4435           0.0000          0.0000           612.50        13.93          0.1000            0.0000          36.7500       PFind                   None            0.00    0.00    None
 29.7200         3.0035           0.0000          0.0000           848.33        19.30          0.1600            0.0000          84.8333       PFind                   None            0.00    0.00    None
 64.3200         1.4471           0.0000          0.0000          1122.50        25.54          0.1400            0.0000          67.3500       PFind                   None            0.00    0.00    None
 37.9800         2.3672           0.0000          0.0000          2820.00        64.15          0.1200            0.0000         225.6000       PFind                   None            0.00    0.00    None
 26.5200         3.3582           0.0000          0.0000          4395.83       100.00          0.0400            0.0000         527.5000       PFind                   None            0.00    0.00    None