File: Generating XRD fingerprints/INPUT/Detrital data/4A_pf_FT.txt
Filename:
	C:\Program Files\Thermo Electron\WinXRD\Datafiles\FIEN2\FIEN\4A_FT.pk

File Created:
	February 25, 2021 - 10:41 AM

Specimen Id:
	4A FT

Specimen Name:

Specimen Description:

Comment:
Scan Type: 2Theta Scan
Start Angle: 1 deg.
Stop Angle: 65 deg.
Num Points: 3201
Step Size: 0.02 deg.
Scan Rate: 1.000000
Scan Mode: Continuous
Wavelength: 1.540562
\Kalpha1: 1.540562	\Kalpha2: 1.544390	\Kbeta: 1.392218

Optics:
		Detector:
			 Type: Fixed Slits
		Tube:
			 Type: Fixed Slits

Datas:
Peaks:

Position        Dspace          ESD(P)          Corr.Fact       Intensity       Rel.Int.        FWHM(L)         ESD(L)          Area            Source                  Curve           Strain  CSize   CSize_Source
[deg]           [A]             [deg]           [deg]           [CPS]           [CPS]           [deg]           [deg]           [deg]           [--]                    [--]            [--]    [--]    [--]
  2.7400        32.2176           0.0000          0.0000           123.33         8.00          0.0800            0.0000          12.3333       PFind                   None            0.00    0.00    None
  3.5200        25.0800           0.0000          0.0000            75.00         4.86          0.0800            0.0000           0.0000       PFind                   None            0.00    0.00    None
  4.0600        21.7454           0.0000          0.0000            72.50         4.70          0.0400            0.0000           7.2500       PFind                   None            0.00    0.00    None
  4.7400        18.6272           0.0000          0.0000            64.17         4.16          0.1400            0.0000           1.2833       PFind                   None            0.00    0.00    None
  5.4000        16.3519           0.0000          0.0000            70.83         4.59          0.1000            0.0000           0.0000       PFind                   None            0.00    0.00    None
  6.5200        13.5453           0.0000          0.0000            60.83         3.94          0.1200            0.0000           8.5167       PFind                   None            0.00    0.00    None
  7.1600        12.3359           0.0000          0.0000            50.00         3.24          0.1600            0.0000           4.0000       PFind                   None            0.00    0.00    None
  7.6600        11.5318           0.0000          0.0000            39.17         2.54          0.0600            0.0000           1.5667       PFind                   None            0.00    0.00    None
  9.2000         9.6046           0.0000          0.0000            51.67         3.35          0.0600            0.0000           7.2333       PFind                   None            0.00    0.00    None
 10.0400         8.8029           0.0000          0.0000            31.67         2.05          0.0800            0.0000           1.2667       PFind                   None            0.00    0.00    None
 11.3200         7.8102           0.0000          0.0000            45.00         2.92          0.1600            0.0000           0.0000       PFind                   None            0.00    0.00    None
 12.7600         6.9318           0.0000          0.0000            35.00         2.27          0.0400            0.0000           2.8000       PFind                   None            0.00    0.00    None
 14.9800         5.9092           0.0000          0.0000            34.17         2.22          0.0200            0.0000           0.6833       PFind                   None            0.00    0.00    None
 16.5800         5.3424           0.0000          0.0000            30.00         1.94          0.0800            0.0000           0.0000       PFind                   None            0.00    0.00    None
 18.7000         4.7412           0.0000          0.0000           210.00        13.61          0.1000            0.0000          29.4000       PFind                   None            0.00    0.00    None
 20.7800         4.2711           0.0000          0.0000           344.17        22.31          0.1000            0.0000          27.5333       PFind                   None            0.00    0.00    None
 22.9800         3.8669           0.0000          0.0000            60.00         3.89          0.1600            0.0000           3.6000       PFind                   None            0.00    0.00    None
 25.0800         3.5477           0.0000          0.0000           434.17        28.15          0.1400            0.0000          60.7833       PFind                   None            0.00    0.00    None
 27.4200         3.2500           0.0000          0.0000           220.00        14.26          0.0000            0.0000          26.4000       PFind                   None            0.00    0.00    None
 29.8000         2.9957           0.0000          0.0000           158.33        10.26          0.1400            0.0000          25.3333       PFind                   None            0.00    0.00    None
 31.1600         2.8679           0.0000          0.0000           155.00        10.05          0.0400            0.0000          24.8000       PFind                   None            0.00    0.00    None
 33.3000         2.6884           0.0000          0.0000            35.83         2.32          0.0800            0.0000           1.4333       PFind                   None            0.00    0.00    None
 34.9200         2.5673           0.0000          0.0000           115.83         7.51          0.0000            0.0000          18.5333       PFind                   None            0.00    0.00    None
 37.3400         2.4062           0.0000          0.0000            90.00         5.83          0.0000            0.0000          10.8000       PFind                   None            0.00    0.00    None
 38.5000         2.3364           0.0000          0.0000            32.50         2.11          0.1600            0.0000           3.2500       PFind                   None            0.00    0.00    None
 41.1800         2.1903           0.0000          0.0000            32.50         2.11          0.1200            0.0000           0.6500       PFind                   None            0.00    0.00    None
 44.2000         2.0474           0.0000          0.0000           105.83         6.86          0.0800            0.0000           6.3500       PFind                   None            0.00    0.00    None
 46.5000         1.9513           0.0000          0.0000            30.00         1.94          0.0600            0.0000           1.8000       PFind                   None            0.00    0.00    None
 48.4400         1.8776           0.0000          0.0000            46.67         3.03          0.0200            0.0000           2.8000       PFind                   None            0.00    0.00    None
 50.0600         1.8206           0.0000          0.0000           266.67        17.29          0.0200            0.0000          21.3333       PFind                   None            0.00    0.00    None
 51.1400         1.7847           0.0000          0.0000            65.00         4.21          0.1400            0.0000          10.4000       PFind                   None            0.00    0.00    None
 53.1200         1.7227           0.0000          0.0000            37.50         2.43          0.1600            0.0000           4.5000       PFind                   None            0.00    0.00    None
 55.5200         1.6538           0.0000          0.0000            30.83         2.00          0.1000            0.0000           1.2333       PFind                   None            0.00    0.00    None
 56.6400         1.6237           0.0000          0.0000            40.00         2.59          0.0800            0.0000           4.0000       PFind                   None            0.00    0.00    None
 59.0800         1.5623           0.0000          0.0000            40.83         2.65          0.0600            0.0000           4.9000       PFind                   None            0.00    0.00    None
 60.5200         1.5286           0.0000          0.0000            34.17         2.22          0.1200            0.0000           2.7333       PFind                   None            0.00    0.00    None
 61.4200         1.5083           0.0000          0.0000            49.17         3.19          0.0600            0.0000           6.8833       PFind                   None            0.00    0.00    None
 62.5800         1.4831           0.0000          0.0000            32.50         2.11          0.0800            0.0000           1.9500       PFind                   None            0.00    0.00    None
 64.5000         1.4435           0.0000          0.0000            59.17         3.84          0.1000            0.0000           4.7333       PFind                   None            0.00    0.00    None