File: Generating XRD fingerprints/INPUT/Detrital data/5_2_AUG_PF_FILTER.txt
Filename:
	C:\Program Files\Thermo Electron\WinXRD\Datafiles\FIEN\5_2_AG_FILTER.pk

File Created:
	April 15, 2019 - 03:07 PM

Specimen Id:
	5.2 AUGUST AG  FILTER

Specimen Name:

Specimen Description:

Comment:
Scan Type: 2Theta Scan
Start Angle: 1 deg.
Stop Angle: 65 deg.
Num Points: 3201
Step Size: 0.02 deg.
Scan Rate: 1.000000
Scan Mode: Continuous
Wavelength: 1.540562
\Kalpha1: 1.540562	\Kalpha2: 1.544390	\Kbeta: 1.392218

Optics:
		Detector:
			 Type: Fixed Slits
		Tube:
			 Type: Fixed Slits

Datas:
Peaks:

Position        Dspace          ESD(P)          Corr.Fact       Intensity       Rel.Int.        FWHM(L)         ESD(L)          Area            Source                  Curve           Strain  CSize   CSize_Source
[deg]           [A]             [deg]           [deg]           [CPS]           [CPS]           [deg]           [deg]           [deg]           [--]                    [--]            [--]    [--]    [--]
  2.9600        29.8235           0.0000          0.0000            60.83         2.90          0.1600            0.0000           4.8667       PFind                   None            0.00    0.00    None
  3.3200        26.5904           0.0000          0.0000            58.33         2.78          0.0800            0.0000           5.8333       PFind                   None            0.00    0.00    None
  3.8000        23.2326           0.0000          0.0000            48.33         2.31          0.1600            0.0000           2.9000       PFind                   None            0.00    0.00    None
  4.6800        18.8659           0.0000          0.0000            43.33         2.07          0.1600            0.0000           0.8667       PFind                   None            0.00    0.00    None
  5.5400        15.9390           0.0000          0.0000            53.33         2.54          0.0800            0.0000           1.0667       PFind                   None            0.00    0.00    None
  8.9000         9.9277           0.0000          0.0000           255.00        12.16          0.0000            0.0000          25.5000       PFind                   None            0.00    0.00    None
 10.6600         8.2922           0.0000          0.0000           111.67         5.33          0.1200            0.0000          11.1667       PFind                   None            0.00    0.00    None
 12.5400         7.0530           0.0000          0.0000           303.33        14.47          0.0200            0.0000          30.3333       PFind                   None            0.00    0.00    None
 17.8400         4.9678           0.0000          0.0000           146.67         7.00          0.1200            0.0000          14.6667       PFind                   None            0.00    0.00    None
 18.8400         4.7063           0.0000          0.0000           147.50         7.03          0.1000            0.0000          14.7500       PFind                   None            0.00    0.00    None
 19.8800         4.4624           0.0000          0.0000            40.00         1.91          0.0800            0.0000           4.8000       PFind                   None            0.00    0.00    None
 22.0800         4.0225           0.0000          0.0000           235.83        11.25          0.1000            0.0000          23.5833       PFind                   None            0.00    0.00    None
 23.1000         3.8471           0.0000          0.0000            66.67         3.18          0.0200            0.0000           5.3333       PFind                   None            0.00    0.00    None
 23.8200         3.7324           0.0000          0.0000            38.33         1.83          0.0200            0.0000           0.7667       PFind                   None            0.00    0.00    None
 24.6200         3.6129           0.0000          0.0000           322.50        15.38          0.0000            0.0000          38.7000       PFind                   None            0.00    0.00    None
 25.5200         3.4875           0.0000          0.0000           145.00         6.92          0.1000            0.0000          20.3000       PFind                   None            0.00    0.00    None
 26.9200         3.3092           0.0000          0.0000           512.50        24.44          0.1200            0.0000          61.5000       PFind                   None            0.00    0.00    None
 27.9400         3.1907           0.0000          0.0000           425.83        20.31          0.1000            0.0000          51.1000       PFind                   None            0.00    0.00    None
 28.6600         3.1122           0.0000          0.0000           125.00         5.96          0.1000            0.0000          20.0000       PFind                   None            0.00    0.00    None
 30.2800         2.9493           0.0000          0.0000            66.67         3.18          0.1200            0.0000           8.0000       PFind                   None            0.00    0.00    None
 30.5200         2.9266           0.0000          0.0000            64.17         3.06          0.1200            0.0000           7.7000       PFind                   None            0.00    0.00    None
 31.2600         2.8590           0.0000          0.0000            89.17         4.25          0.1200            0.0000          12.4833       PFind                   None            0.00    0.00    None
 31.9000         2.8031           0.0000          0.0000            46.67         2.23          0.1600            0.0000           0.9333       PFind                   None            0.00    0.00    None
 32.2800         2.7709           0.0000          0.0000            46.67         2.23          0.1200            0.0000           5.6000       PFind                   None            0.00    0.00    None
 34.6200         2.5888           0.0000          0.0000            66.67         3.18          0.1400            0.0000           4.0000       PFind                   None            0.00    0.00    None
 35.5600         2.5225           0.0000          0.0000           109.17         5.21          0.1400            0.0000          15.2833       PFind                   None            0.00    0.00    None
 36.5600         2.4558           0.0000          0.0000           335.83        16.02          0.0800            0.0000          33.5833       PFind                   None            0.00    0.00    None
 37.7200         2.3829           0.0000          0.0000           128.33         6.12          0.0000            0.0000           7.7000       PFind                   None            0.00    0.00    None
 38.9000         2.3133           0.0000          0.0000            51.67         2.46          0.1200            0.0000           4.1333       PFind                   None            0.00    0.00    None
 40.3000         2.2361           0.0000          0.0000           115.83         5.52          0.1200            0.0000          11.5833       PFind                   None            0.00    0.00    None
 41.9800         2.1504           0.0000          0.0000            68.33         3.26          0.1000            0.0000           5.4667       PFind                   None            0.00    0.00    None
 42.7000         2.1158           0.0000          0.0000            47.50         2.27          0.0600            0.0000           2.8500       PFind                   None            0.00    0.00    None
 44.9800         2.0137           0.0000          0.0000            48.33         2.31          0.1000            0.0000           3.8667       PFind                   None            0.00    0.00    None
 45.6200         1.9869           0.0000          0.0000           229.17        10.93          0.1200            0.0000          36.6667       PFind                   None            0.00    0.00    None
 48.3200         1.8820           0.0000          0.0000            68.33         3.26          0.1200            0.0000           4.1000       PFind                   None            0.00    0.00    None
 50.1600         1.8172           0.0000          0.0000           297.50        14.19          0.1400            0.0000          23.8000       PFind                   None            0.00    0.00    None
 50.7400         1.7978           0.0000          0.0000            53.33         2.54          0.1000            0.0000           6.4000       PFind                   None            0.00    0.00    None
 52.1200         1.7534           0.0000          0.0000            53.33         2.54          0.1000            0.0000           2.1333       PFind                   None            0.00    0.00    None
 52.5200         1.7410           0.0000          0.0000            61.67         2.94          0.0800            0.0000           3.7000       PFind                   None            0.00    0.00    None
 55.0600         1.6665           0.0000          0.0000            75.83         3.62          0.0800            0.0000           7.5833       PFind                   None            0.00    0.00    None
 55.8000         1.6461           0.0000          0.0000            46.67         2.23          0.1400            0.0000           5.6000       PFind                   None            0.00    0.00    None
 59.9800         1.5410           0.0000          0.0000           159.17         7.59          0.0600            0.0000          12.7333       PFind                   None            0.00    0.00    None
 60.7800         1.5226           0.0000          0.0000            44.17         2.11          0.1000            0.0000           3.5333       PFind                   None            0.00    0.00    None
 61.8200         1.4995           0.0000          0.0000            49.17         2.34          0.0800            0.0000           0.9833       PFind                   None            0.00    0.00    None
 64.1200         1.4512           0.0000          0.0000            39.17         1.87          0.0800            0.0000           3.9167       PFind                   None            0.00    0.00    None