File: Generating XRD fingerprints/INPUT/Detrital data/7_2_AUG_PF_FILTER.txt
Filename:
	C:\Program Files\Thermo Electron\WinXRD\Datafiles\FIEN\7_2_AUG_FILTER.pk

File Created:
	April 15, 2019 - 03:08 PM

Specimen Id:
	7.2 AUGUST FILTER

Specimen Name:

Specimen Description:

Comment:
Scan Type: 2Theta Scan
Start Angle: 1 deg.
Stop Angle: 50 deg.
Num Points: 2451
Step Size: 0.02 deg.
Scan Rate: 1.000000
Scan Mode: Continuous
Wavelength: 1.540562
\Kalpha1: 1.540562	\Kalpha2: 1.544390	\Kbeta: 1.392218

Optics:
		Detector:
			 Type: Fixed Slits
		Tube:
			 Type: Fixed Slits

Datas:
Peaks:

Position        Dspace          ESD(P)          Corr.Fact       Intensity       Rel.Int.        FWHM(L)         ESD(L)          Area            Source                  Curve           Strain  CSize   CSize_Source
[deg]           [A]             [deg]           [deg]           [CPS]           [CPS]           [deg]           [deg]           [deg]           [--]                    [--]            [--]    [--]    [--]
  6.3800        13.8422           0.0000          0.0000           126.67         6.89          0.0800            0.0000          17.7333       PFind                   None            0.00    0.00    None
  9.0200         9.7959           0.0000          0.0000           636.67        34.62          0.1400            0.0000          50.9333       PFind                   None            0.00    0.00    None
 12.3400         7.1668           0.0000          0.0000           280.00        15.22          0.1200            0.0000          33.6000       PFind                   None            0.00    0.00    None
 12.6400         6.9974           0.0000          0.0000           374.17        20.34          0.1000            0.0000          52.3833       PFind                   None            0.00    0.00    None
 18.0000         4.9240           0.0000          0.0000           235.00        12.78          0.1400            0.0000          23.5000       PFind                   None            0.00    0.00    None
 18.9600         4.6768           0.0000          0.0000           156.67         8.52          0.1000            0.0000          21.9333       PFind                   None            0.00    0.00    None
 21.0600         4.2149           0.0000          0.0000           433.33        23.56          0.1400            0.0000          43.3333       PFind                   None            0.00    0.00    None
 22.2000         4.0010           0.0000          0.0000           125.00         6.80          0.1200            0.0000          12.5000       PFind                   None            0.00    0.00    None
 24.7600         3.5928           0.0000          0.0000           249.17        13.55          0.1000            0.0000          39.8667       PFind                   None            0.00    0.00    None
 25.3200         3.5146           0.0000          0.0000           312.50        16.99          0.1600            0.0000          37.5000       PFind                   None            0.00    0.00    None
 25.5600         3.4822           0.0000          0.0000            96.67         5.26          0.0600            0.0000           9.6667       PFind                   None            0.00    0.00    None
 26.8200         3.3214           0.0000          0.0000          1839.17       100.00          0.1400            0.0000         183.9167       PFind                   None            0.00    0.00    None
 27.0600         3.2924           0.0000          0.0000           795.83        43.27          0.1200            0.0000         111.4167       PFind                   None            0.00    0.00    None
 27.5800         3.2315           0.0000          0.0000           108.33         5.89          0.0200            0.0000          17.3333       PFind                   None            0.00    0.00    None
 27.7000         3.2178           0.0000          0.0000           175.00         9.52          0.0600            0.0000          24.5000       PFind                   None            0.00    0.00    None
 28.0400         3.1796           0.0000          0.0000           495.00        26.91          0.1000            0.0000          59.4000       PFind                   None            0.00    0.00    None
 28.8000         3.0974           0.0000          0.0000            95.00         5.17          0.1600            0.0000           5.7000       PFind                   None            0.00    0.00    None
 30.6200         2.9173           0.0000          0.0000            87.50         4.76          0.0200            0.0000           8.7500       PFind                   None            0.00    0.00    None
 30.9800         2.8842           0.0000          0.0000           154.17         8.38          0.0400            0.0000           6.1667       PFind                   None            0.00    0.00    None
 35.6400         2.5170           0.0000          0.0000           110.00         5.98          0.0400            0.0000          15.4000       PFind                   None            0.00    0.00    None
 36.7200         2.4454           0.0000          0.0000           218.33        11.87          0.1200            0.0000          17.4667       PFind                   None            0.00    0.00    None
 38.2600         2.3505           0.0000          0.0000           955.83        51.97          0.0800            0.0000         114.7000       PFind                   None            0.00    0.00    None
 39.0000         2.3076           0.0000          0.0000            87.50         4.76          0.0800            0.0000           3.5000       PFind                   None            0.00    0.00    None
 39.6400         2.2718           0.0000          0.0000            99.17         5.39          0.0600            0.0000           1.9833       PFind                   None            0.00    0.00    None
 40.4600         2.2276           0.0000          0.0000           218.33        11.87          0.1400            0.0000          13.1000       PFind                   None            0.00    0.00    None
 42.8200         2.1101           0.0000          0.0000           129.17         7.02          0.1400            0.0000           7.7500       PFind                   None            0.00    0.00    None
 44.4800         2.0352           0.0000          0.0000           412.50        22.43          0.1000            0.0000          66.0000       PFind                   None            0.00    0.00    None
 45.7600         1.9812           0.0000          0.0000           249.17        13.55          0.1000            0.0000          39.8667       PFind                   None            0.00    0.00    None
 45.9600         1.9730           0.0000          0.0000           234.17        12.73          0.1600            0.0000          18.7333       PFind                   None            0.00    0.00    None
 48.7400         1.8668           0.0000          0.0000            95.00         5.17          0.1600            0.0000           1.9000       PFind                   None            0.00    0.00    None