File: Generating XRD fingerprints/INPUT/Detrital data/G12_PF_RT.txt
Filename:
	C:\Program Files\Thermo Electron\WinXRD\Datafiles\FIEN2\GEO\G12_RT.pk

File Created:
	February 25, 2021 - 09:35 AM

Specimen Id:
	G12_RT

Specimen Name:

Specimen Description:

Comment:
Scan Type: 2Theta Scan
Start Angle: 3 deg.
Stop Angle: 65 deg.
Num Points: 3101
Step Size: 0.02 deg.
Scan Rate: 1.000000
Scan Mode: Continuous
Wavelength: 1.540562
\Kalpha1: 1.540562	\Kalpha2: 1.544390	\Kbeta: 1.392218

Optics:
		Detector:
			 Type: Fixed Slits
		Tube:
			 Type: Fixed Slits

Datas:
Peaks:

Position        Dspace          ESD(P)          Corr.Fact       Intensity       Rel.Int.        FWHM(L)         ESD(L)          Area            Source                  Curve           Strain  CSize   CSize_Source
[deg]           [A]             [deg]           [deg]           [CPS]           [CPS]           [deg]           [deg]           [deg]           [--]                    [--]            [--]    [--]    [--]
  4.7000        18.7856           0.0000          0.0000            52.50         2.37          0.0800            0.0000           4.2000       PFind                   None            0.00    0.00    None
  5.3600        16.4739           0.0000          0.0000            51.67         2.33          0.0800            0.0000           1.0333       PFind                   None            0.00    0.00    None
  6.1600        14.3361           0.0000          0.0000           150.83         6.81          0.0200            0.0000          18.1000       PFind                   None            0.00    0.00    None
  6.7400        13.1037           0.0000          0.0000            53.33         2.41          0.1200            0.0000           8.5333       PFind                   None            0.00    0.00    None
  7.9200        11.1538           0.0000          0.0000            41.67         1.88          0.1000            0.0000           1.6667       PFind                   None            0.00    0.00    None
  8.8200        10.0176           0.0000          0.0000           684.17        30.88          0.0400            0.0000          68.4167       PFind                   None            0.00    0.00    None
  9.3600         9.4408           0.0000          0.0000            65.00         2.93          0.1000            0.0000           7.8000       PFind                   None            0.00    0.00    None
 10.1000         8.7507           0.0000          0.0000            37.50         1.69          0.1200            0.0000           0.7500       PFind                   None            0.00    0.00    None
 10.9600         8.0659           0.0000          0.0000            45.83         2.07          0.1000            0.0000           0.9167       PFind                   None            0.00    0.00    None
 12.1400         7.2844           0.0000          0.0000           530.83        23.96          0.0200            0.0000          42.4667       PFind                   None            0.00    0.00    None
 13.7800         6.4210           0.0000          0.0000            54.17         2.44          0.0200            0.0000           4.3333       PFind                   None            0.00    0.00    None
 17.2800         5.1275           0.0000          0.0000            70.83         3.20          0.0000            0.0000           1.4167       PFind                   None            0.00    0.00    None
 18.7400         4.7312           0.0000          0.0000           117.50         5.30          0.0600            0.0000          16.4500       PFind                   None            0.00    0.00    None
 20.5600         4.3163           0.0000          0.0000            34.17         1.54          0.1000            0.0000           4.1000       PFind                   None            0.00    0.00    None
 22.8800         3.8836           0.0000          0.0000            50.83         2.29          0.1600            0.0000           7.1167       PFind                   None            0.00    0.00    None
 24.2200         3.6717           0.0000          0.0000            55.83         2.52          0.1200            0.0000           7.8167       PFind                   None            0.00    0.00    None
 25.1000         3.5449           0.0000          0.0000           272.50        12.30          0.1600            0.0000          27.2500       PFind                   None            0.00    0.00    None
 26.8200         3.3214           0.0000          0.0000           575.83        25.99          0.1000            0.0000          80.6167       PFind                   None            0.00    0.00    None
 28.0800         3.1751           0.0000          0.0000           240.83        10.87          0.1200            0.0000          24.0833       PFind                   None            0.00    0.00    None
 30.0600         2.9703           0.0000          0.0000            71.67         3.23          0.1400            0.0000           7.1667       PFind                   None            0.00    0.00    None
 31.2000         2.8644           0.0000          0.0000            93.33         4.21          0.1000            0.0000           7.4667       PFind                   None            0.00    0.00    None
 32.1000         2.7861           0.0000          0.0000            54.17         2.44          0.0800            0.0000           8.6667       PFind                   None            0.00    0.00    None
 34.0600         2.6301           0.0000          0.0000            34.17         1.54          0.1000            0.0000           0.6833       PFind                   None            0.00    0.00    None
 35.4600         2.5294           0.0000          0.0000           142.50         6.43          0.0400            0.0000          22.8000       PFind                   None            0.00    0.00    None
 36.4800         2.4610           0.0000          0.0000           240.00        10.83          0.1600            0.0000          19.2000       PFind                   None            0.00    0.00    None
 37.2800         2.4100           0.0000          0.0000            62.50         2.82          0.0800            0.0000          10.0000       PFind                   None            0.00    0.00    None
 37.8400         2.3756           0.0000          0.0000            35.83         1.62          0.1400            0.0000           4.3000       PFind                   None            0.00    0.00    None
 41.6400         2.1672           0.0000          0.0000            65.00         2.93          0.1000            0.0000           6.5000       PFind                   None            0.00    0.00    None
 43.4600         2.0805           0.0000          0.0000           207.50         9.36          0.1200            0.0000          33.2000       PFind                   None            0.00    0.00    None
 45.0600         2.0103           0.0000          0.0000            51.67         2.33          0.0600            0.0000           5.1667       PFind                   None            0.00    0.00    None
 48.1000         1.8901           0.0000          0.0000            55.00         2.48          0.1200            0.0000           3.3000       PFind                   None            0.00    0.00    None
 50.5600         1.8038           0.0000          0.0000           225.00        10.15          0.0800            0.0000          18.0000       PFind                   None            0.00    0.00    None
 54.8200         1.6732           0.0000          0.0000            80.00         3.61          0.1200            0.0000           6.4000       PFind                   None            0.00    0.00    None
 55.7600         1.6472           0.0000          0.0000            61.67         2.78          0.1400            0.0000           9.8667       PFind                   None            0.00    0.00    None
 58.5800         1.5745           0.0000          0.0000            44.17         1.99          0.1600            0.0000           4.4167       PFind                   None            0.00    0.00    None
 60.0400         1.5396           0.0000          0.0000           146.67         6.62          0.0200            0.0000          20.5333       PFind                   None            0.00    0.00    None
 61.9600         1.4965           0.0000          0.0000           140.83         6.36          0.0800            0.0000          11.2667       PFind                   None            0.00    0.00    None
 64.1400         1.4507           0.0000          0.0000            37.50         1.69          0.1600            0.0000           3.7500       PFind                   None            0.00    0.00    None