File: Generating XRD fingerprints/INPUT/Detrital data/G14_A_BIS_pf_RT.txt
Filename:
	C:\Program Files\Thermo Electron\WinXRD\Datafiles\FIEN2\FIEN\G14_A_BIS_RT.pk

File Created:
	February 25, 2021 - 10:43 AM

Specimen Id:
	G14 A RT

Specimen Name:

Specimen Description:

Comment:
Scan Type: 2Theta Scan
Start Angle: 3 deg.
Stop Angle: 65 deg.
Num Points: 3101
Step Size: 0.02 deg.
Scan Rate: 1.000000
Scan Mode: Continuous
Wavelength: 1.540562
\Kalpha1: 1.540562	\Kalpha2: 1.544390	\Kbeta: 1.392218

Optics:
		Detector:
			 Type: Fixed Slits
		Tube:
			 Type: Fixed Slits

Datas:
Peaks:

Position        Dspace          ESD(P)          Corr.Fact       Intensity       Rel.Int.        FWHM(L)         ESD(L)          Area            Source                  Curve           Strain  CSize   CSize_Source
[deg]           [A]             [deg]           [deg]           [CPS]           [CPS]           [deg]           [deg]           [deg]           [--]                    [--]            [--]    [--]    [--]
  4.6800        18.8659           0.0000          0.0000            60.00         3.24          0.0800            0.0000           2.4000       PFind                   None            0.00    0.00    None
  5.3800        16.4127           0.0000          0.0000            50.00         2.70          0.1000            0.0000           6.0000       PFind                   None            0.00    0.00    None
  6.7800        13.0264           0.0000          0.0000            64.17         3.46          0.0200            0.0000           3.8500       PFind                   None            0.00    0.00    None
  7.3200        12.0666           0.0000          0.0000            48.33         2.61          0.0800            0.0000           3.8667       PFind                   None            0.00    0.00    None
  8.1600        10.8263           0.0000          0.0000            38.33         2.07          0.1600            0.0000           3.8333       PFind                   None            0.00    0.00    None
  9.5200         9.2825           0.0000          0.0000            40.83         2.20          0.1000            0.0000           5.7167       PFind                   None            0.00    0.00    None
 10.2000         8.6651           0.0000          0.0000            30.83         1.66          0.0600            0.0000           4.3167       PFind                   None            0.00    0.00    None
 11.2400         7.8656           0.0000          0.0000            32.50         1.75          0.1600            0.0000           1.3000       PFind                   None            0.00    0.00    None
 12.8200         6.8995           0.0000          0.0000            34.17         1.84          0.1600            0.0000           0.0000       PFind                   None            0.00    0.00    None
 13.6000         6.5055           0.0000          0.0000            31.67         1.71          0.0800            0.0000           3.1667       PFind                   None            0.00    0.00    None
 15.1400         5.8471           0.0000          0.0000            29.17         1.57          0.0800            0.0000           0.0000       PFind                   None            0.00    0.00    None
 16.3200         5.4269           0.0000          0.0000            27.50         1.48          0.1600            0.0000           0.5500       PFind                   None            0.00    0.00    None
 18.3400         4.8335           0.0000          0.0000            29.17         1.57          0.0800            0.0000           2.9167       PFind                   None            0.00    0.00    None
 19.3000         4.5952           0.0000          0.0000            33.33         1.80          0.0600            0.0000           2.0000       PFind                   None            0.00    0.00    None
 20.4400         4.3414           0.0000          0.0000            35.00         1.89          0.0000            0.0000           2.8000       PFind                   None            0.00    0.00    None
 22.4000         3.9657           0.0000          0.0000            39.17         2.11          0.1200            0.0000           3.1333       PFind                   None            0.00    0.00    None
 24.1600         3.6807           0.0000          0.0000           112.50         6.07          0.1400            0.0000           9.0000       PFind                   None            0.00    0.00    None
 25.4200         3.5010           0.0000          0.0000           105.83         5.71          0.0800            0.0000          16.9333       PFind                   None            0.00    0.00    None
 26.8000         3.3238           0.0000          0.0000           660.00        35.60          0.0600            0.0000          79.2000       PFind                   None            0.00    0.00    None
 28.5200         3.1271           0.0000          0.0000            79.17         4.27          0.0800            0.0000           9.5000       PFind                   None            0.00    0.00    None
 30.7600         2.9043           0.0000          0.0000            72.50         3.91          0.0600            0.0000          10.1500       PFind                   None            0.00    0.00    None
 31.9800         2.7962           0.0000          0.0000            60.83         3.28          0.0600            0.0000           9.7333       PFind                   None            0.00    0.00    None
 33.9000         2.6421           0.0000          0.0000            28.33         1.53          0.0400            0.0000           2.2667       PFind                   None            0.00    0.00    None
 35.1200         2.5531           0.0000          0.0000            35.00         1.89          0.1000            0.0000           2.8000       PFind                   None            0.00    0.00    None
 37.2000         2.4150           0.0000          0.0000            36.67         1.98          0.0400            0.0000           2.9333       PFind                   None            0.00    0.00    None
 38.6800         2.3259           0.0000          0.0000            29.17         1.57          0.1200            0.0000           4.0833       PFind                   None            0.00    0.00    None
 39.9800         2.2532           0.0000          0.0000            26.67         1.44          0.0800            0.0000           1.6000       PFind                   None            0.00    0.00    None
 41.6200         2.1682           0.0000          0.0000            40.83         2.20          0.0200            0.0000           3.2667       PFind                   None            0.00    0.00    None
 43.4200         2.0824           0.0000          0.0000            63.33         3.42          0.1000            0.0000           6.3333       PFind                   None            0.00    0.00    None
 44.4200         2.0378           0.0000          0.0000           210.00        11.33          0.0600            0.0000          33.6000       PFind                   None            0.00    0.00    None
 46.2000         1.9633           0.0000          0.0000            25.00         1.35          0.0000            0.0000           0.5000       PFind                   None            0.00    0.00    None
 48.0600         1.8916           0.0000          0.0000            45.00         2.43          0.1000            0.0000           5.4000       PFind                   None            0.00    0.00    None
 49.6200         1.8357           0.0000          0.0000            42.50         2.29          0.0400            0.0000           5.9500       PFind                   None            0.00    0.00    None
 51.2200         1.7821           0.0000          0.0000            37.50         2.02          0.1000            0.0000           3.0000       PFind                   None            0.00    0.00    None
 52.8000         1.7324           0.0000          0.0000            33.33         1.80          0.1600            0.0000           2.6667       PFind                   None            0.00    0.00    None
 55.1800         1.6632           0.0000          0.0000            40.00         2.16          0.0800            0.0000           4.8000       PFind                   None            0.00    0.00    None
 58.6800         1.5720           0.0000          0.0000            24.17         1.30          0.0200            0.0000           2.4167       PFind                   None            0.00    0.00    None
 60.0200         1.5401           0.0000          0.0000           134.17         7.24          0.1400            0.0000          18.7833       PFind                   None            0.00    0.00    None
 60.8800         1.5204           0.0000          0.0000            31.67         1.71          0.1600            0.0000           0.6333       PFind                   None            0.00    0.00    None
 63.9200         1.4552           0.0000          0.0000            47.50         2.56          0.1400            0.0000           5.7000       PFind                   None            0.00    0.00    None
 64.8800         1.4360           0.0000          0.0000            36.67         1.98          0.0800            0.0000           0.7333       PFind                   None            0.00    0.00    None