File: Generating XRD fingerprints/INPUT/Detrital data/G14A_pf_FT.txt
Filename:
	C:\Program Files\Thermo Electron\WinXRD\Datafiles\FIEN2\FIEN\G14A_FT.pk

File Created:
	February 25, 2021 - 10:42 AM

Specimen Id:
	G14 A FT

Specimen Name:

Specimen Description:

Comment:
Scan Type: 2Theta Scan
Start Angle: 1 deg.
Stop Angle: 65 deg.
Num Points: 3201
Step Size: 0.02 deg.
Scan Rate: 1.000000
Scan Mode: Continuous
Wavelength: 1.540562
\Kalpha1: 1.540562	\Kalpha2: 1.544390	\Kbeta: 1.392218

Optics:
		Detector:
			 Type: Fixed Slits
		Tube:
			 Type: Fixed Slits

Datas:
Peaks:

Position        Dspace          ESD(P)          Corr.Fact       Intensity       Rel.Int.        FWHM(L)         ESD(L)          Area            Source                  Curve           Strain  CSize   CSize_Source
[deg]           [A]             [deg]           [deg]           [CPS]           [CPS]           [deg]           [deg]           [deg]           [--]                    [--]            [--]    [--]    [--]
  2.8000        31.5273           0.0000          0.0000           111.67         7.15          0.1600            0.0000          15.6333       PFind                   None            0.00    0.00    None
  3.3200        26.5904           0.0000          0.0000            67.50         4.32          0.1000            0.0000           5.4000       PFind                   None            0.00    0.00    None
  3.9200        22.5217           0.0000          0.0000            82.50         5.28          0.0400            0.0000           4.9500       PFind                   None            0.00    0.00    None
  4.4800        19.7076           0.0000          0.0000            52.50         3.36          0.1600            0.0000           6.3000       PFind                   None            0.00    0.00    None
  5.0200        17.5888           0.0000          0.0000            52.50         3.36          0.1600            0.0000           2.1000       PFind                   None            0.00    0.00    None
  5.6000        15.7684           0.0000          0.0000            59.17         3.79          0.1400            0.0000           0.0000       PFind                   None            0.00    0.00    None
  6.4200        13.7561           0.0000          0.0000           205.00        13.13          0.0800            0.0000          24.6000       PFind                   None            0.00    0.00    None
  6.9600        12.6899           0.0000          0.0000            51.67         3.31          0.0400            0.0000           3.1000       PFind                   None            0.00    0.00    None
  7.6000        11.6227           0.0000          0.0000            39.17         2.51          0.1400            0.0000           3.1333       PFind                   None            0.00    0.00    None
  8.0200        11.0149           0.0000          0.0000            50.00         3.20          0.1600            0.0000           0.0000       PFind                   None            0.00    0.00    None
  8.5400        10.3454           0.0000          0.0000            85.83         5.50          0.0200            0.0000          13.7333       PFind                   None            0.00    0.00    None
 10.0800         8.7680           0.0000          0.0000            30.00         1.92          0.1600            0.0000           1.2000       PFind                   None            0.00    0.00    None
 10.9400         8.0806           0.0000          0.0000            43.33         2.77          0.1600            0.0000           0.8667       PFind                   None            0.00    0.00    None
 12.3800         7.1438           0.0000          0.0000          1045.00        66.92          0.0400            0.0000         146.3000       PFind                   None            0.00    0.00    None
 14.0400         6.3026           0.0000          0.0000            63.33         4.06          0.0000            0.0000           6.3333       PFind                   None            0.00    0.00    None
 15.2000         5.8241           0.0000          0.0000            36.67         2.35          0.0400            0.0000           5.1333       PFind                   None            0.00    0.00    None
 19.6000         4.5255           0.0000          0.0000            26.67         1.71          0.0400            0.0000           0.5333       PFind                   None            0.00    0.00    None
 21.4400         4.1411           0.0000          0.0000            33.33         2.13          0.0800            0.0000           0.0000       PFind                   None            0.00    0.00    None
 22.8200         3.8937           0.0000          0.0000            29.17         1.87          0.1600            0.0000           0.0000       PFind                   None            0.00    0.00    None
 23.9400         3.7140           0.0000          0.0000            30.83         1.97          0.0000            0.0000           0.0000       PFind                   None            0.00    0.00    None
 25.3000         3.5173           0.0000          0.0000           618.33        39.59          0.1600            0.0000          86.5667       PFind                   None            0.00    0.00    None
 26.8000         3.3238           0.0000          0.0000          1561.67       100.00          0.1400            0.0000         218.6333       PFind                   None            0.00    0.00    None
 28.0800         3.1751           0.0000          0.0000           670.00        42.90          0.0600            0.0000         107.2000       PFind                   None            0.00    0.00    None
 30.3600         2.9417           0.0000          0.0000            74.17         4.75          0.1400            0.0000          11.8667       PFind                   None            0.00    0.00    None
 31.1400         2.8697           0.0000          0.0000            42.50         2.72          0.1600            0.0000           5.1000       PFind                   None            0.00    0.00    None
 32.2800         2.7709           0.0000          0.0000            90.00         5.76          0.0200            0.0000          14.4000       PFind                   None            0.00    0.00    None
 33.5200         2.6712           0.0000          0.0000            37.50         2.40          0.1000            0.0000           0.0000       PFind                   None            0.00    0.00    None
 34.6800         2.5845           0.0000          0.0000            70.83         4.54          0.0200            0.0000          11.3333       PFind                   None            0.00    0.00    None
 35.7600         2.5089           0.0000          0.0000           137.50         8.80          0.0800            0.0000          22.0000       PFind                   None            0.00    0.00    None
 37.1000         2.4213           0.0000          0.0000            31.67         2.03          0.1000            0.0000           0.0000       PFind                   None            0.00    0.00    None
 37.5400         2.3939           0.0000          0.0000            65.00         4.16          0.1400            0.0000          10.4000       PFind                   None            0.00    0.00    None
 39.6200         2.2729           0.0000          0.0000            90.00         5.76          0.1000            0.0000          10.8000       PFind                   None            0.00    0.00    None
 41.8600         2.1563           0.0000          0.0000            50.83         3.26          0.0000            0.0000           7.1167       PFind                   None            0.00    0.00    None
 42.6000         2.1205           0.0000          0.0000           120.83         7.74          0.0200            0.0000          14.5000       PFind                   None            0.00    0.00    None
 45.1400         2.0069           0.0000          0.0000            77.50         4.96          0.1600            0.0000           7.7500       PFind                   None            0.00    0.00    None
 46.2200         1.9625           0.0000          0.0000            50.83         3.26          0.0800            0.0000           2.0333       PFind                   None            0.00    0.00    None
 48.4000         1.8791           0.0000          0.0000            38.33         2.45          0.1600            0.0000           6.1333       PFind                   None            0.00    0.00    None
 50.7000         1.7991           0.0000          0.0000            58.33         3.74          0.0400            0.0000           7.0000       PFind                   None            0.00    0.00    None
 52.5600         1.7397           0.0000          0.0000            40.83         2.61          0.1200            0.0000           3.2667       PFind                   None            0.00    0.00    None
 53.1400         1.7221           0.0000          0.0000            28.33         1.81          0.1600            0.0000           3.4000       PFind                   None            0.00    0.00    None
 54.7200         1.6761           0.0000          0.0000            35.00         2.24          0.0000            0.0000           2.8000       PFind                   None            0.00    0.00    None
 55.9200         1.6429           0.0000          0.0000            66.67         4.27          0.0000            0.0000          10.6667       PFind                   None            0.00    0.00    None
 58.8400         1.5681           0.0000          0.0000            31.67         2.03          0.1200            0.0000           0.6333       PFind                   None            0.00    0.00    None
 60.0800         1.5387           0.0000          0.0000           150.83         9.66          0.1200            0.0000          21.1167       PFind                   None            0.00    0.00    None
 61.5200         1.5061           0.0000          0.0000            36.67         2.35          0.1600            0.0000           3.6667       PFind                   None            0.00    0.00    None
 61.9000         1.4978           0.0000          0.0000            37.50         2.40          0.1200            0.0000           3.0000       PFind                   None            0.00    0.00    None
 62.3600         1.4878           0.0000          0.0000            31.67         2.03          0.1000            0.0000           0.0000       PFind                   None            0.00    0.00    None
 64.1400         1.4507           0.0000          0.0000            61.67         3.95          0.1600            0.0000           2.4667       PFind                   None            0.00    0.00    None
 64.2600         1.4483           0.0000          0.0000            43.33         2.77          0.1600            0.0000           5.2000       PFind                   None            0.00    0.00    None