File: Generating XRD fingerprints/INPUT/Detrital data/G15_pf_RT.txt
Filename:
	C:\Program Files\Thermo Electron\WinXRD\Datafiles\FIEN2\FIEN\G15_RT.pk

File Created:
	February 25, 2021 - 10:44 AM

Specimen Id:
	G15 RT

Specimen Name:

Specimen Description:

Comment:
Scan Type: 2Theta Scan
Start Angle: 3 deg.
Stop Angle: 65 deg.
Num Points: 3101
Step Size: 0.02 deg.
Scan Rate: 1.000000
Scan Mode: Continuous
Wavelength: 1.540562
\Kalpha1: 1.540562	\Kalpha2: 1.544390	\Kbeta: 1.392218

Optics:
		Detector:
			 Type: Fixed Slits
		Tube:
			 Type: Fixed Slits

Datas:
Peaks:

Position        Dspace          ESD(P)          Corr.Fact       Intensity       Rel.Int.        FWHM(L)         ESD(L)          Area            Source                  Curve           Strain  CSize   CSize_Source
[deg]           [A]             [deg]           [deg]           [CPS]           [CPS]           [deg]           [deg]           [deg]           [--]                    [--]            [--]    [--]    [--]
  4.7200        18.7061           0.0000          0.0000            56.67         3.43          0.0200            0.0000           6.8000       PFind                   None            0.00    0.00    None
  5.9000        14.9672           0.0000          0.0000           399.17        24.14          0.0800            0.0000          47.9000       PFind                   None            0.00    0.00    None
  7.0400        12.5459           0.0000          0.0000            45.00         2.72          0.1200            0.0000           1.8000       PFind                   None            0.00    0.00    None
  7.9400        11.1257           0.0000          0.0000            38.33         2.32          0.1600            0.0000           1.5333       PFind                   None            0.00    0.00    None
  9.2000         9.6046           0.0000          0.0000            50.00         3.02          0.0600            0.0000           1.0000       PFind                   None            0.00    0.00    None
 10.0000         8.8380           0.0000          0.0000            26.67         1.61          0.0200            0.0000           2.6667       PFind                   None            0.00    0.00    None
 11.1200         7.9502           0.0000          0.0000            28.33         1.71          0.0800            0.0000           2.8333       PFind                   None            0.00    0.00    None
 12.4000         7.1323           0.0000          0.0000           313.33        18.95          0.0000            0.0000          25.0667       PFind                   None            0.00    0.00    None
 13.7600         6.4302           0.0000          0.0000            37.50         2.27          0.0200            0.0000           3.7500       PFind                   None            0.00    0.00    None
 14.7000         6.0211           0.0000          0.0000            30.00         1.81          0.0000            0.0000           0.0000       PFind                   None            0.00    0.00    None
 15.4400         5.7342           0.0000          0.0000            32.50         1.97          0.0400            0.0000           0.6500       PFind                   None            0.00    0.00    None
 17.7200         5.0012           0.0000          0.0000           247.50        14.97          0.0200            0.0000          24.7500       PFind                   None            0.00    0.00    None
 19.2000         4.6189           0.0000          0.0000            37.50         2.27          0.1600            0.0000           0.7500       PFind                   None            0.00    0.00    None
 20.5600         4.3163           0.0000          0.0000            28.33         1.71          0.0600            0.0000           2.2667       PFind                   None            0.00    0.00    None
 22.7200         3.9106           0.0000          0.0000            51.67         3.13          0.0800            0.0000           4.1333       PFind                   None            0.00    0.00    None
 23.6600         3.7573           0.0000          0.0000            38.33         2.32          0.1400            0.0000           3.8333       PFind                   None            0.00    0.00    None
 25.4000         3.5037           0.0000          0.0000            88.33         5.34          0.0600            0.0000          14.1333       PFind                   None            0.00    0.00    None
 26.7600         3.3287           0.0000          0.0000           705.00        42.64          0.0200            0.0000          98.7000       PFind                   None            0.00    0.00    None
 28.5200         3.1271           0.0000          0.0000            91.67         5.54          0.0800            0.0000          11.0000       PFind                   None            0.00    0.00    None
 30.7600         2.9043           0.0000          0.0000            34.17         2.07          0.0800            0.0000           2.0500       PFind                   None            0.00    0.00    None
 32.0200         2.7928           0.0000          0.0000            58.33         3.53          0.1600            0.0000           7.0000       PFind                   None            0.00    0.00    None
 34.4800         2.5990           0.0000          0.0000            87.50         5.29          0.0400            0.0000          12.2500       PFind                   None            0.00    0.00    None
 36.4200         2.4649           0.0000          0.0000           136.67         8.27          0.0800            0.0000          13.6667       PFind                   None            0.00    0.00    None
 38.0600         2.3624           0.0000          0.0000            52.50         3.18          0.1000            0.0000           1.0500       PFind                   None            0.00    0.00    None
 38.7000         2.3248           0.0000          0.0000            27.50         1.66          0.0600            0.0000           0.0000       PFind                   None            0.00    0.00    None
 39.6400         2.2718           0.0000          0.0000            31.67         1.92          0.0200            0.0000           0.6333       PFind                   None            0.00    0.00    None
 40.9200         2.2036           0.0000          0.0000            25.83         1.56          0.0600            0.0000           2.0667       PFind                   None            0.00    0.00    None
 42.3200         2.1339           0.0000          0.0000           118.33         7.16          0.1200            0.0000          16.5667       PFind                   None            0.00    0.00    None
 43.9200         2.0598           0.0000          0.0000            40.00         2.42          0.0800            0.0000           0.8000       PFind                   None            0.00    0.00    None
 46.4200         1.9545           0.0000          0.0000            31.67         1.92          0.0200            0.0000           0.0000       PFind                   None            0.00    0.00    None
 49.1000         1.8539           0.0000          0.0000            25.83         1.56          0.1600            0.0000           1.0333       PFind                   None            0.00    0.00    None
 51.0400         1.7879           0.0000          0.0000            37.50         2.27          0.1600            0.0000           2.2500       PFind                   None            0.00    0.00    None
 53.2000         1.7203           0.0000          0.0000            32.50         1.97          0.1400            0.0000           1.3000       PFind                   None            0.00    0.00    None
 55.6800         1.6494           0.0000          0.0000            40.83         2.47          0.0800            0.0000           6.5333       PFind                   None            0.00    0.00    None
 59.8400         1.5443           0.0000          0.0000           208.33        12.60          0.0800            0.0000          20.8333       PFind                   None            0.00    0.00    None
 60.9800         1.5181           0.0000          0.0000            35.00         2.12          0.0200            0.0000           2.8000       PFind                   None            0.00    0.00    None
 62.5600         1.4835           0.0000          0.0000            38.33         2.32          0.0200            0.0000           2.3000       PFind                   None            0.00    0.00    None
 64.6600         1.4403           0.0000          0.0000            29.17         1.76          0.0200            0.0000           0.0000       PFind                   None            0.00    0.00    None