File: Generating XRD fingerprints/INPUT/Detrital data/G16_pf_FT.txt
Filename:
	C:\Program Files\Thermo Electron\WinXRD\Datafiles\FIEN2\FIEN\G16_FT.pk

File Created:
	February 25, 2021 - 10:44 AM

Specimen Id:
	G16 FT RT

Specimen Name:

Specimen Description:

Comment:
Scan Type: 2Theta Scan
Start Angle: 2 deg.
Stop Angle: 65 deg.
Num Points: 3151
Step Size: 0.02 deg.
Scan Rate: 1.000000
Scan Mode: Continuous
Wavelength: 1.540562
\Kalpha1: 1.540562	\Kalpha2: 1.544390	\Kbeta: 1.392218

Optics:
		Detector:
			 Type: Fixed Slits
		Tube:
			 Type: Fixed Slits

Datas:
Peaks:

Position        Dspace          ESD(P)          Corr.Fact       Intensity       Rel.Int.        FWHM(L)         ESD(L)          Area            Source                  Curve           Strain  CSize   CSize_Source
[deg]           [A]             [deg]           [deg]           [CPS]           [CPS]           [deg]           [deg]           [deg]           [--]                    [--]            [--]    [--]    [--]
  3.7800        23.3555           0.0000          0.0000            90.00         2.45          0.1000            0.0000           5.4000       PFind                   None            0.00    0.00    None
  4.2200        20.9212           0.0000          0.0000            73.33         2.00          0.1000            0.0000           1.4667       PFind                   None            0.00    0.00    None
  4.6800        18.8659           0.0000          0.0000            77.50         2.11          0.1600            0.0000           1.5500       PFind                   None            0.00    0.00    None
  5.0000        17.6591           0.0000          0.0000            55.00         1.50          0.1200            0.0000           0.0000       PFind                   None            0.00    0.00    None
  5.8400        15.1209           0.0000          0.0000           655.83        17.84          0.0200            0.0000          78.7000       PFind                   None            0.00    0.00    None
  6.6600        13.2609           0.0000          0.0000            71.67         1.95          0.0800            0.0000           0.0000       PFind                   None            0.00    0.00    None
  7.0600        12.5104           0.0000          0.0000            43.33         1.18          0.1400            0.0000           2.6000       PFind                   None            0.00    0.00    None
  8.7600        10.0860           0.0000          0.0000          1640.83        44.64          0.0800            0.0000          98.4500       PFind                   None            0.00    0.00    None
  9.6600         9.1483           0.0000          0.0000            40.83         1.11          0.1400            0.0000           3.2667       PFind                   None            0.00    0.00    None
 10.9000         8.1102           0.0000          0.0000            35.83         0.97          0.0800            0.0000           1.4333       PFind                   None            0.00    0.00    None
 12.3600         7.1553           0.0000          0.0000           841.67        22.90          0.0400            0.0000         117.8333       PFind                   None            0.00    0.00    None
 13.2800         6.6616           0.0000          0.0000            42.50         1.16          0.1000            0.0000           3.4000       PFind                   None            0.00    0.00    None
 17.7000         5.0068           0.0000          0.0000           559.17        15.21          0.1200            0.0000          44.7333       PFind                   None            0.00    0.00    None
 19.2200         4.6141           0.0000          0.0000            38.33         1.04          0.1200            0.0000           4.6000       PFind                   None            0.00    0.00    None
 19.7200         4.4982           0.0000          0.0000            68.33         1.86          0.1200            0.0000           6.8333       PFind                   None            0.00    0.00    None
 22.7600         3.9038           0.0000          0.0000            80.00         2.18          0.1200            0.0000           9.6000       PFind                   None            0.00    0.00    None
 24.5000         3.6304           0.0000          0.0000          1527.50        41.56          0.0200            0.0000         213.8500       PFind                   None            0.00    0.00    None
 26.5200         3.3582           0.0000          0.0000          2202.50        59.92          0.1000            0.0000         220.2500       PFind                   None            0.00    0.00    None
 27.4000         3.2524           0.0000          0.0000           130.83         3.56          0.0800            0.0000          15.7000       PFind                   None            0.00    0.00    None
 29.7400         3.0016           0.0000          0.0000           204.17         5.55          0.0600            0.0000          24.5000       PFind                   None            0.00    0.00    None
 30.7600         2.9043           0.0000          0.0000           101.67         2.77          0.1400            0.0000           2.0333       PFind                   None            0.00    0.00    None
 32.0000         2.7945           0.0000          0.0000            80.00         2.18          0.0200            0.0000           6.4000       PFind                   None            0.00    0.00    None
 33.9200         2.6406           0.0000          0.0000            38.33         1.04          0.1000            0.0000           6.1333       PFind                   None            0.00    0.00    None
 35.4400         2.5308           0.0000          0.0000           458.33        12.47          0.0200            0.0000          73.3333       PFind                   None            0.00    0.00    None
 37.0800         2.4225           0.0000          0.0000           112.50         3.06          0.1200            0.0000          18.0000       PFind                   None            0.00    0.00    None
 37.5800         2.3914           0.0000          0.0000            90.00         2.45          0.0800            0.0000          14.4000       PFind                   None            0.00    0.00    None
 40.2600         2.2382           0.0000          0.0000            50.00         1.36          0.1600            0.0000           6.0000       PFind                   None            0.00    0.00    None
 41.8600         2.1563           0.0000          0.0000           103.33         2.81          0.0800            0.0000          16.5333       PFind                   None            0.00    0.00    None
 43.4200         2.0824           0.0000          0.0000            45.83         1.25          0.1600            0.0000           0.9167       PFind                   None            0.00    0.00    None
 45.0600         2.0103           0.0000          0.0000            51.67         1.41          0.1600            0.0000           8.2667       PFind                   None            0.00    0.00    None
 48.0400         1.8923           0.0000          0.0000            42.50         1.16          0.1000            0.0000           6.8000       PFind                   None            0.00    0.00    None
 50.5000         1.8058           0.0000          0.0000            55.00         1.50          0.1000            0.0000           2.2000       PFind                   None            0.00    0.00    None
 52.1000         1.7540           0.0000          0.0000            73.33         2.00          0.0200            0.0000           7.3333       PFind                   None            0.00    0.00    None
 52.5400         1.7403           0.0000          0.0000            38.33         1.04          0.0400            0.0000           3.8333       PFind                   None            0.00    0.00    None
 55.0600         1.6665           0.0000          0.0000            35.00         0.95          0.0800            0.0000           4.2000       PFind                   None            0.00    0.00    None
 56.7200         1.6216           0.0000          0.0000            43.33         1.18          0.1000            0.0000           2.6000       PFind                   None            0.00    0.00    None
 59.8400         1.5443           0.0000          0.0000           216.67         5.89          0.0800            0.0000          21.6667       PFind                   None            0.00    0.00    None
 60.5200         1.5286           0.0000          0.0000            35.83         0.97          0.1400            0.0000           5.7333       PFind                   None            0.00    0.00    None
 61.1000         1.5154           0.0000          0.0000            36.67         1.00          0.1200            0.0000           2.2000       PFind                   None            0.00    0.00    None
 61.8800         1.4982           0.0000          0.0000            54.17         1.47          0.1600            0.0000           4.3333       PFind                   None            0.00    0.00    None
 63.3400         1.4671           0.0000          0.0000            50.00         1.36          0.0200            0.0000           3.0000       PFind                   None            0.00    0.00    None
 64.0600         1.4524           0.0000          0.0000            37.50         1.02          0.1600            0.0000           3.0000       PFind                   None            0.00    0.00    None