File: Generating XRD fingerprints/INPUT/Detrital data/G18_pf_RT.txt
Filename:
	C:\Program Files\Thermo Electron\WinXRD\Datafiles\FIEN2\GEO\G18_RT.pk

File Created:
	February 25, 2021 - 09:36 AM

Specimen Id:
	G18_RT

Specimen Name:

Specimen Description:

Comment:
Scan Type: 2Theta Scan
Start Angle: 3 deg.
Stop Angle: 65 deg.
Num Points: 3101
Step Size: 0.02 deg.
Scan Rate: 1.000000
Scan Mode: Continuous
Wavelength: 1.540562
\Kalpha1: 1.540562	\Kalpha2: 1.544390	\Kbeta: 1.392218

Optics:
		Detector:
			 Type: Fixed Slits
		Tube:
			 Type: Fixed Slits

Datas:
Peaks:

Position        Dspace          ESD(P)          Corr.Fact       Intensity       Rel.Int.        FWHM(L)         ESD(L)          Area            Source                  Curve           Strain  CSize   CSize_Source
[deg]           [A]             [deg]           [deg]           [CPS]           [CPS]           [deg]           [deg]           [deg]           [--]                    [--]            [--]    [--]    [--]
  4.6800        18.8659           0.0000          0.0000            45.00         0.30          0.1600            0.0000           0.9000       PFind                   None            0.00    0.00    None
  5.0600        17.4499           0.0000          0.0000            50.00         0.33          0.0800            0.0000           0.0000       PFind                   None            0.00    0.00    None
  5.2600        16.7868           0.0000          0.0000            45.00         0.30          0.1200            0.0000           0.9000       PFind                   None            0.00    0.00    None
  6.1400        14.3827           0.0000          0.0000           204.17         1.36          0.1600            0.0000          24.5000       PFind                   None            0.00    0.00    None
  6.8000        12.9882           0.0000          0.0000            45.83         0.31          0.0600            0.0000           4.5833       PFind                   None            0.00    0.00    None
  8.7800        10.0631           0.0000          0.0000           985.00         6.57          0.0000            0.0000          59.1000       PFind                   None            0.00    0.00    None
  9.3600         9.4408           0.0000          0.0000            75.83         0.51          0.1600            0.0000           4.5500       PFind                   None            0.00    0.00    None
 10.4200         8.4827           0.0000          0.0000            90.83         0.61          0.0600            0.0000           7.2667       PFind                   None            0.00    0.00    None
 12.4200         7.1208           0.0000          0.0000           386.67         2.58          0.1600            0.0000          30.9333       PFind                   None            0.00    0.00    None
 13.8400         6.3933           0.0000          0.0000           295.00         1.97          0.0600            0.0000          11.8000       PFind                   None            0.00    0.00    None
 18.5400         4.7818           0.0000          0.0000            44.17         0.29          0.1600            0.0000           7.0667       PFind                   None            0.00    0.00    None
 19.7600         4.4892           0.0000          0.0000            47.50         0.32          0.0600            0.0000           5.7000       PFind                   None            0.00    0.00    None
 21.9600         4.0442           0.0000          0.0000           187.50         1.25          0.1200            0.0000          11.2500       PFind                   None            0.00    0.00    None
 22.9200         3.8769           0.0000          0.0000            55.83         0.37          0.0400            0.0000           0.0000       PFind                   None            0.00    0.00    None
 24.1800         3.6777           0.0000          0.0000            55.00         0.37          0.0400            0.0000           3.3000       PFind                   None            0.00    0.00    None
 25.0800         3.5477           0.0000          0.0000           229.17         1.53          0.0800            0.0000          32.0833       PFind                   None            0.00    0.00    None
 26.3000         3.3858           0.0000          0.0000           718.33         4.79          0.0200            0.0000          71.8333       PFind                   None            0.00    0.00    None
 26.7600         3.3287           0.0000          0.0000           855.00         5.71          0.0000            0.0000         119.7000       PFind                   None            0.00    0.00    None
 27.9400         3.1907           0.0000          0.0000         14981.67       100.00          0.0200            0.0000         599.2667       PFind                   None            0.00    0.00    None
 29.7600         2.9996           0.0000          0.0000            87.50         0.58          0.0400            0.0000          12.2500       PFind                   None            0.00    0.00    None
 30.1200         2.9646           0.0000          0.0000           270.00         1.80          0.0800            0.0000          10.8000       PFind                   None            0.00    0.00    None
 30.7600         2.9043           0.0000          0.0000            42.50         0.28          0.0800            0.0000           5.1000       PFind                   None            0.00    0.00    None
 31.5200         2.8360           0.0000          0.0000            50.00         0.33          0.0400            0.0000           8.0000       PFind                   None            0.00    0.00    None
 32.9400         2.7169           0.0000          0.0000            73.33         0.49          0.0800            0.0000           2.9333       PFind                   None            0.00    0.00    None
 34.9000         2.5687           0.0000          0.0000            84.17         0.56          0.1600            0.0000          13.4667       PFind                   None            0.00    0.00    None
 36.0800         2.4873           0.0000          0.0000            54.17         0.36          0.0600            0.0000           4.3333       PFind                   None            0.00    0.00    None
 37.3600         2.4050           0.0000          0.0000            45.00         0.30          0.0600            0.0000           7.2000       PFind                   None            0.00    0.00    None
 37.6000         2.3902           0.0000          0.0000            50.00         0.33          0.0600            0.0000           8.0000       PFind                   None            0.00    0.00    None
 39.3800         2.2862           0.0000          0.0000           170.83         1.14          0.0600            0.0000           6.8333       PFind                   None            0.00    0.00    None
 40.2000         2.2414           0.0000          0.0000            76.67         0.51          0.1600            0.0000           6.1333       PFind                   None            0.00    0.00    None
 42.3600         2.1320           0.0000          0.0000           125.83         0.84          0.1400            0.0000           7.5500       PFind                   None            0.00    0.00    None
 43.5200         2.0778           0.0000          0.0000            78.33         0.52          0.1600            0.0000           7.8333       PFind                   None            0.00    0.00    None
 44.8200         2.0205           0.0000          0.0000           112.50         0.75          0.0800            0.0000          13.5000       PFind                   None            0.00    0.00    None
 50.0400         1.8213           0.0000          0.0000           365.83         2.44          0.1400            0.0000          21.9500       PFind                   None            0.00    0.00    None
 51.1600         1.7840           0.0000          0.0000            67.50         0.45          0.0600            0.0000           5.4000       PFind                   None            0.00    0.00    None
 54.2800         1.6886           0.0000          0.0000            42.50         0.28          0.0600            0.0000           2.5500       PFind                   None            0.00    0.00    None
 54.9200         1.6704           0.0000          0.0000           100.83         0.67          0.1400            0.0000           4.0333       PFind                   None            0.00    0.00    None
 55.7600         1.6472           0.0000          0.0000            56.67         0.38          0.0400            0.0000           9.0667       PFind                   None            0.00    0.00    None
 58.4800         1.5769           0.0000          0.0000           334.17         2.23          0.0200            0.0000          13.3667       PFind                   None            0.00    0.00    None
 59.1000         1.5619           0.0000          0.0000           206.67         1.38          0.1000            0.0000          12.4000       PFind                   None            0.00    0.00    None
 59.8800         1.5434           0.0000          0.0000           309.17         2.06          0.0600            0.0000          18.5500       PFind                   None            0.00    0.00    None
 61.4200         1.5083           0.0000          0.0000            47.50         0.32          0.0600            0.0000           7.6000       PFind                   None            0.00    0.00    None
 62.1200         1.4930           0.0000          0.0000            45.83         0.31          0.0400            0.0000           2.7500       PFind                   None            0.00    0.00    None
 64.2200         1.4491           0.0000          0.0000            80.83         0.54          0.1200            0.0000           6.4667       PFind                   None            0.00    0.00    None