File: Generating XRD fingerprints/INPUT/Detrital data/G20_pf_RT.txt
Filename:
	C:\Program Files\Thermo Electron\WinXRD\Datafiles\FIEN2\GEO\G20_RT.pk

File Created:
	February 25, 2021 - 09:38 AM

Specimen Id:
	G20_RT

Specimen Name:

Specimen Description:

Comment:
Scan Type: 2Theta Scan
Start Angle: 3 deg.
Stop Angle: 65 deg.
Num Points: 3101
Step Size: 0.02 deg.
Scan Rate: 1.000000
Scan Mode: Continuous
Wavelength: 1.540562
\Kalpha1: 1.540562	\Kalpha2: 1.544390	\Kbeta: 1.392218

Optics:
		Detector:
			 Type: Fixed Slits
		Tube:
			 Type: Fixed Slits

Datas:
Peaks:

Position        Dspace          ESD(P)          Corr.Fact       Intensity       Rel.Int.        FWHM(L)         ESD(L)          Area            Source                  Curve           Strain  CSize   CSize_Source
[deg]           [A]             [deg]           [deg]           [CPS]           [CPS]           [deg]           [deg]           [deg]           [--]                    [--]            [--]    [--]    [--]
  4.8000        18.3945           0.0000          0.0000            45.83         1.36          0.0800            0.0000           5.5000       PFind                   None            0.00    0.00    None
  5.3400        16.5355           0.0000          0.0000            40.83         1.21          0.0600            0.0000           3.2667       PFind                   None            0.00    0.00    None
  5.7800        15.2777           0.0000          0.0000            55.83         1.66          0.1600            0.0000           1.1167       PFind                   None            0.00    0.00    None
  6.4800        13.6288           0.0000          0.0000            55.00         1.63          0.1600            0.0000           5.5000       PFind                   None            0.00    0.00    None
  7.0600        12.5104           0.0000          0.0000            41.67         1.24          0.0800            0.0000           4.1667       PFind                   None            0.00    0.00    None
  7.6800        11.5018           0.0000          0.0000            40.83         1.21          0.1000            0.0000           2.4500       PFind                   None            0.00    0.00    None
  8.3400        10.5930           0.0000          0.0000            47.50         1.41          0.1200            0.0000           4.7500       PFind                   None            0.00    0.00    None
  9.1600         9.6465           0.0000          0.0000            51.67         1.54          0.1200            0.0000           8.2667       PFind                   None            0.00    0.00    None
  9.9800         8.8557           0.0000          0.0000            31.67         0.94          0.1200            0.0000           1.2667       PFind                   None            0.00    0.00    None
 10.5000         8.4182           0.0000          0.0000            50.83         1.51          0.1400            0.0000           4.0667       PFind                   None            0.00    0.00    None
 12.2200         7.2369           0.0000          0.0000           417.50        12.40          0.0200            0.0000          33.4000       PFind                   None            0.00    0.00    None
 13.8600         6.3841           0.0000          0.0000            40.00         1.19          0.1200            0.0000           5.6000       PFind                   None            0.00    0.00    None
 14.5400         6.0870           0.0000          0.0000            30.00         0.89          0.1600            0.0000           0.6000       PFind                   None            0.00    0.00    None
 17.8400         4.9678           0.0000          0.0000           196.67         5.84          0.0400            0.0000          23.6000       PFind                   None            0.00    0.00    None
 19.8600         4.4668           0.0000          0.0000            54.17         1.61          0.0800            0.0000           8.6667       PFind                   None            0.00    0.00    None
 23.1000         3.8471           0.0000          0.0000            66.67         1.98          0.1000            0.0000           8.0000       PFind                   None            0.00    0.00    None
 24.5800         3.6187           0.0000          0.0000           194.17         5.77          0.0600            0.0000          23.3000       PFind                   None            0.00    0.00    None
 25.5200         3.4875           0.0000          0.0000           112.50         3.34          0.0200            0.0000          18.0000       PFind                   None            0.00    0.00    None
 27.5800         3.2315           0.0000          0.0000            79.17         2.35          0.0200            0.0000          12.6667       PFind                   None            0.00    0.00    None
 28.2400         3.1575           0.0000          0.0000            73.33         2.18          0.1200            0.0000          11.7333       PFind                   None            0.00    0.00    None
 30.1400         2.9626           0.0000          0.0000            55.00         1.63          0.1400            0.0000           8.8000       PFind                   None            0.00    0.00    None
 30.8600         2.8951           0.0000          0.0000           202.50         6.02          0.0800            0.0000          20.2500       PFind                   None            0.00    0.00    None
 32.1600         2.7810           0.0000          0.0000            65.00         1.93          0.0800            0.0000           9.1000       PFind                   None            0.00    0.00    None
 34.6400         2.5874           0.0000          0.0000            66.67         1.98          0.0000            0.0000           5.3333       PFind                   None            0.00    0.00    None
 35.5600         2.5225           0.0000          0.0000           163.33         4.85          0.0600            0.0000          19.6000       PFind                   None            0.00    0.00    None
 37.1400         2.4187           0.0000          0.0000            41.67         1.24          0.1400            0.0000           2.5000       PFind                   None            0.00    0.00    None
 40.3000         2.2361           0.0000          0.0000           102.50         3.05          0.1400            0.0000           8.2000       PFind                   None            0.00    0.00    None
 42.9800         2.1026           0.0000          0.0000            34.17         1.02          0.0800            0.0000           4.7833       PFind                   None            0.00    0.00    None
 44.5400         2.0326           0.0000          0.0000           150.00         4.46          0.0800            0.0000          24.0000       PFind                   None            0.00    0.00    None
 45.7400         1.9820           0.0000          0.0000           130.83         3.89          0.0800            0.0000          20.9333       PFind                   None            0.00    0.00    None
 48.1400         1.8886           0.0000          0.0000            59.17         1.76          0.1600            0.0000           4.7333       PFind                   None            0.00    0.00    None
 49.3600         1.8448           0.0000          0.0000            47.50         1.41          0.0000            0.0000           3.8000       PFind                   None            0.00    0.00    None
 50.7000         1.7991           0.0000          0.0000            61.67         1.83          0.1600            0.0000           2.4667       PFind                   None            0.00    0.00    None
 52.1400         1.7528           0.0000          0.0000            51.67         1.54          0.1000            0.0000           3.1000       PFind                   None            0.00    0.00    None
 54.8800         1.6715           0.0000          0.0000           124.17         3.69          0.0400            0.0000           9.9333       PFind                   None            0.00    0.00    None
 55.8400         1.6451           0.0000          0.0000            65.83         1.96          0.1000            0.0000           9.2167       PFind                   None            0.00    0.00    None
 58.7600         1.5701           0.0000          0.0000            29.17         0.87          0.0800            0.0000           4.0833       PFind                   None            0.00    0.00    None
 59.9400         1.5420           0.0000          0.0000           328.33         9.75          0.0800            0.0000          26.2667       PFind                   None            0.00    0.00    None
 60.8400         1.5213           0.0000          0.0000            46.67         1.39          0.1400            0.0000           7.4667       PFind                   None            0.00    0.00    None
 61.8000         1.4999           0.0000          0.0000            49.17         1.46          0.0800            0.0000           3.9333       PFind                   None            0.00    0.00    None
 64.0400         1.4528           0.0000          0.0000            63.33         1.88          0.1000            0.0000           2.5333       PFind                   None            0.00    0.00    None
 64.2200         1.4491           0.0000          0.0000            39.17         1.16          0.0800            0.0000           2.3500       PFind                   None            0.00    0.00    None