File: Generating XRD fingerprints/INPUT/Detrital data/G27A_pf_FT.txt
Filename:
	C:\Program Files\Thermo Electron\WinXRD\Datafiles\FIEN2\FIEN\G27A_FT.pk

File Created:
	February 25, 2021 - 10:47 AM

Specimen Id:
	G27A FT

Specimen Name:

Specimen Description:

Comment:
Scan Type: 2Theta Scan
Start Angle: 1 deg.
Stop Angle: 65 deg.
Num Points: 3201
Step Size: 0.02 deg.
Scan Rate: 1.000000
Scan Mode: Continuous
Wavelength: 1.540562
\Kalpha1: 1.540562	\Kalpha2: 1.544390	\Kbeta: 1.392218

Optics:
		Detector:
			 Type: Fixed Slits
		Tube:
			 Type: Fixed Slits

Datas:
Peaks:

Position        Dspace          ESD(P)          Corr.Fact       Intensity       Rel.Int.        FWHM(L)         ESD(L)          Area            Source                  Curve           Strain  CSize   CSize_Source
[deg]           [A]             [deg]           [deg]           [CPS]           [CPS]           [deg]           [deg]           [deg]           [--]                    [--]            [--]    [--]    [--]
  3.0600        28.8491           0.0000          0.0000            71.67         0.78          0.1600            0.0000           8.6000       PFind                   None            0.00    0.00    None
  3.7600        23.4797           0.0000          0.0000            67.50         0.73          0.1600            0.0000          10.8000       PFind                   None            0.00    0.00    None
  4.2600        20.7249           0.0000          0.0000            48.33         0.52          0.1600            0.0000           5.8000       PFind                   None            0.00    0.00    None
  4.7400        18.6272           0.0000          0.0000            65.00         0.71          0.0600            0.0000           1.3000       PFind                   None            0.00    0.00    None
  5.1600        17.1119           0.0000          0.0000            45.83         0.50          0.1600            0.0000           3.6667       PFind                   None            0.00    0.00    None
  6.1600        14.3361           0.0000          0.0000           162.50         1.76          0.0200            0.0000          22.7500       PFind                   None            0.00    0.00    None
  7.3200        12.0666           0.0000          0.0000            38.33         0.42          0.0600            0.0000           0.0000       PFind                   None            0.00    0.00    None
  7.8800        11.2103           0.0000          0.0000            44.17         0.48          0.0600            0.0000           4.4167       PFind                   None            0.00    0.00    None
  9.3400         9.4610           0.0000          0.0000            38.33         0.42          0.0600            0.0000           3.8333       PFind                   None            0.00    0.00    None
 10.4000         8.4989           0.0000          0.0000            85.83         0.93          0.0600            0.0000           8.5833       PFind                   None            0.00    0.00    None
 12.4000         7.1323           0.0000          0.0000           252.50         2.74          0.0000            0.0000          35.3500       PFind                   None            0.00    0.00    None
 13.3000         6.6516           0.0000          0.0000            40.83         0.44          0.0800            0.0000           1.6333       PFind                   None            0.00    0.00    None
 14.8600         5.9566           0.0000          0.0000            43.33         0.47          0.0600            0.0000           2.6000       PFind                   None            0.00    0.00    None
 18.3800         4.8230           0.0000          0.0000            45.83         0.50          0.1200            0.0000           4.5833       PFind                   None            0.00    0.00    None
 19.8200         4.4757           0.0000          0.0000            67.50         0.73          0.0400            0.0000           4.0500       PFind                   None            0.00    0.00    None
 22.4000         3.9657           0.0000          0.0000            40.83         0.44          0.0400            0.0000           3.2667       PFind                   None            0.00    0.00    None
 23.9200         3.7171           0.0000          0.0000            80.00         0.87          0.1000            0.0000           8.0000       PFind                   None            0.00    0.00    None
 25.0600         3.5505           0.0000          0.0000           221.67         2.40          0.0200            0.0000          26.6000       PFind                   None            0.00    0.00    None
 26.5400         3.3558           0.0000          0.0000          9217.50       100.00          0.1200            0.0000         921.7500       PFind                   None            0.00    0.00    None
 27.7800         3.2087           0.0000          0.0000           325.00         3.53          0.1600            0.0000          52.0000       PFind                   None            0.00    0.00    None
 29.0800         3.0682           0.0000          0.0000            47.50         0.52          0.1600            0.0000           1.9000       PFind                   None            0.00    0.00    None
 30.1200         2.9646           0.0000          0.0000           100.00         1.08          0.0600            0.0000           6.0000       PFind                   None            0.00    0.00    None
 30.5000         2.9285           0.0000          0.0000           110.00         1.19          0.1400            0.0000           6.6000       PFind                   None            0.00    0.00    None
 31.4600         2.8413           0.0000          0.0000            50.00         0.54          0.0600            0.0000           5.0000       PFind                   None            0.00    0.00    None
 33.0000         2.7121           0.0000          0.0000            82.50         0.90          0.1200            0.0000           4.9500       PFind                   None            0.00    0.00    None
 35.5200         2.5253           0.0000          0.0000           155.83         1.69          0.0600            0.0000          15.5833       PFind                   None            0.00    0.00    None
 37.4400         2.4001           0.0000          0.0000            38.33         0.42          0.0400            0.0000           6.1333       PFind                   None            0.00    0.00    None
 38.7600         2.3213           0.0000          0.0000            79.17         0.86          0.1000            0.0000           4.7500       PFind                   None            0.00    0.00    None
 42.3800         2.1310           0.0000          0.0000           267.50         2.90          0.0200            0.0000          26.7500       PFind                   None            0.00    0.00    None
 45.4800         1.9927           0.0000          0.0000           730.83         7.93          0.0400            0.0000         116.9333       PFind                   None            0.00    0.00    None
 49.8000         1.8295           0.0000          0.0000            40.83         0.44          0.0400            0.0000           6.5333       PFind                   None            0.00    0.00    None
 51.1200         1.7853           0.0000          0.0000            62.50         0.68          0.0600            0.0000          10.0000       PFind                   None            0.00    0.00    None
 54.9200         1.6704           0.0000          0.0000           215.00         2.33          0.0600            0.0000          12.9000       PFind                   None            0.00    0.00    None
 56.0000         1.6407           0.0000          0.0000            45.83         0.50          0.1600            0.0000           5.5000       PFind                   None            0.00    0.00    None
 56.6800         1.6227           0.0000          0.0000            38.33         0.42          0.0400            0.0000           1.5333       PFind                   None            0.00    0.00    None
 60.0600         1.5392           0.0000          0.0000           306.67         3.33          0.1400            0.0000          24.5333       PFind                   None            0.00    0.00    None
 63.6000         1.4618           0.0000          0.0000            41.67         0.45          0.1200            0.0000           1.6667       PFind                   None            0.00    0.00    None
 64.3400         1.4467           0.0000          0.0000           520.83         5.65          0.0000            0.0000          31.2500       PFind                   None            0.00    0.00    None
 64.5200         1.4431           0.0000          0.0000           283.33         3.07          0.0800            0.0000          17.0000       PFind                   None            0.00    0.00    None