File: Generating XRD fingerprints/INPUT/Detrital data/G28_pf_RT.txt
Filename:
	C:\Program Files\Thermo Electron\WinXRD\Datafiles\FIEN2\FIEN\G28_RT.pk

File Created:
	February 25, 2021 - 10:48 AM

Specimen Id:
	G28 RT

Specimen Name:

Specimen Description:

Comment:
Scan Type: 2Theta Scan
Start Angle: 3 deg.
Stop Angle: 65 deg.
Num Points: 3101
Step Size: 0.02 deg.
Scan Rate: 1.000000
Scan Mode: Continuous
Wavelength: 1.540562
\Kalpha1: 1.540562	\Kalpha2: 1.544390	\Kbeta: 1.392218

Optics:
		Detector:
			 Type: Fixed Slits
		Tube:
			 Type: Fixed Slits

Datas:
Peaks:

Position        Dspace          ESD(P)          Corr.Fact       Intensity       Rel.Int.        FWHM(L)         ESD(L)          Area            Source                  Curve           Strain  CSize   CSize_Source
[deg]           [A]             [deg]           [deg]           [CPS]           [CPS]           [deg]           [deg]           [deg]           [--]                    [--]            [--]    [--]    [--]
  7.7200        11.4423           0.0000          0.0000            26.67         1.06          0.0800            0.0000           1.6000       PFind                   None            0.00    0.00    None
 57.6400         1.5979           0.0000          0.0000            26.67         1.06          0.1600            0.0000           2.6667       PFind                   None            0.00    0.00    None
 42.7600         2.1130           0.0000          0.0000            27.50         1.09          0.0400            0.0000           1.6500       PFind                   None            0.00    0.00    None
 41.8400         2.1573           0.0000          0.0000            28.33         1.12          0.0600            0.0000           1.1333       PFind                   None            0.00    0.00    None
 21.2200         4.1835           0.0000          0.0000            28.33         1.12          0.1400            0.0000           1.7000       PFind                   None            0.00    0.00    None
 63.5200         1.4634           0.0000          0.0000            29.17         1.15          0.0800            0.0000           1.1667       PFind                   None            0.00    0.00    None
 33.9200         2.6406           0.0000          0.0000            30.00         1.19          0.0600            0.0000           4.8000       PFind                   None            0.00    0.00    None
 11.2200         7.8796           0.0000          0.0000            30.83         1.22          0.0800            0.0000           1.2333       PFind                   None            0.00    0.00    None
 38.9800         2.3087           0.0000          0.0000            30.83         1.22          0.0600            0.0000           1.2333       PFind                   None            0.00    0.00    None
  9.6000         9.2053           0.0000          0.0000            31.67         1.25          0.1400            0.0000           2.5333       PFind                   None            0.00    0.00    None
 63.4200         1.4655           0.0000          0.0000            32.50         1.29          0.1000            0.0000           3.9000       PFind                   None            0.00    0.00    None
 19.0400         4.6573           0.0000          0.0000            33.33         1.32          0.1600            0.0000           0.0000       PFind                   None            0.00    0.00    None
  8.1000        10.9063           0.0000          0.0000            34.17         1.35          0.0000            0.0000           2.0500       PFind                   None            0.00    0.00    None
 52.2600         1.7490           0.0000          0.0000            35.83         1.42          0.0800            0.0000           2.8667       PFind                   None            0.00    0.00    None
 55.4400         1.6560           0.0000          0.0000            36.67         1.45          0.1200            0.0000           0.0000       PFind                   None            0.00    0.00    None
 30.8000         2.9006           0.0000          0.0000            37.50         1.48          0.1600            0.0000           3.7500       PFind                   None            0.00    0.00    None
 24.8600         3.5786           0.0000          0.0000            39.17         1.55          0.1600            0.0000           6.2667       PFind                   None            0.00    0.00    None
 52.3600         1.7459           0.0000          0.0000            40.00         1.58          0.0800            0.0000           2.4000       PFind                   None            0.00    0.00    None
 60.6800         1.5249           0.0000          0.0000            41.67         1.65          0.0600            0.0000           6.6667       PFind                   None            0.00    0.00    None
 22.8400         3.8903           0.0000          0.0000            42.50         1.68          0.1600            0.0000           4.2500       PFind                   None            0.00    0.00    None
 47.8800         1.8983           0.0000          0.0000            43.33         1.71          0.1600            0.0000           2.6000       PFind                   None            0.00    0.00    None
 61.6400         1.5034           0.0000          0.0000            44.17         1.75          0.1000            0.0000           5.3000       PFind                   None            0.00    0.00    None
 34.0200         2.6331           0.0000          0.0000            45.00         1.78          0.1600            0.0000           1.8000       PFind                   None            0.00    0.00    None
 60.6200         1.5263           0.0000          0.0000            46.67         1.85          0.0800            0.0000           4.6667       PFind                   None            0.00    0.00    None
 30.2400         2.9531           0.0000          0.0000            48.33         1.91          0.1000            0.0000           7.7333       PFind                   None            0.00    0.00    None
  6.8600        12.8747           0.0000          0.0000            53.33         2.11          0.1600            0.0000           2.1333       PFind                   None            0.00    0.00    None
 37.3600         2.4050           0.0000          0.0000            55.00         2.18          0.0800            0.0000           6.6000       PFind                   None            0.00    0.00    None
  4.8200        18.3182           0.0000          0.0000            59.17         2.34          0.0000            0.0000           8.2833       PFind                   None            0.00    0.00    None
  4.6400        19.0284           0.0000          0.0000            63.33         2.51          0.0800            0.0000           1.2667       PFind                   None            0.00    0.00    None
  5.4400        16.2318           0.0000          0.0000            71.67         2.84          0.0400            0.0000           2.8667       PFind                   None            0.00    0.00    None
 31.1600         2.8679           0.0000          0.0000            81.67         3.23          0.0400            0.0000          13.0667       PFind                   None            0.00    0.00    None
 18.7200         4.7362           0.0000          0.0000            90.83         3.59          0.0400            0.0000           9.0833       PFind                   None            0.00    0.00    None
 25.4000         3.5037           0.0000          0.0000           112.50         4.45          0.0400            0.0000          18.0000       PFind                   None            0.00    0.00    None
  6.1600        14.3361           0.0000          0.0000           130.83         5.18          0.0800            0.0000          13.0833       PFind                   None            0.00    0.00    None
 27.4000         3.2524           0.0000          0.0000           140.83         5.57          0.0600            0.0000          16.9000       PFind                   None            0.00    0.00    None
 42.3600         2.1320           0.0000          0.0000           177.50         7.02          0.0200            0.0000          14.2000       PFind                   None            0.00    0.00    None
 17.7600         4.9900           0.0000          0.0000           245.83         9.73          0.0000            0.0000          19.6667       PFind                   None            0.00    0.00    None
 59.8800         1.5434           0.0000          0.0000           295.00        11.67          0.1000            0.0000          23.6000       PFind                   None            0.00    0.00    None
 50.0400         1.8213           0.0000          0.0000           471.67        18.66          0.0200            0.0000          37.7333       PFind                   None            0.00    0.00    None
 26.5400         3.3558           0.0000          0.0000          2527.50       100.00          0.0200            0.0000         252.7500       PFind                   None            0.00    0.00    None