File: Generating XRD fingerprints/INPUT/Detrital data/G29_pf_FT.txt
Filename:
	C:\Program Files\Thermo Electron\WinXRD\Datafiles\FIEN2\FIEN\G29_FT.pk

File Created:
	February 25, 2021 - 10:48 AM

Specimen Id:
	G29  FT RT

Specimen Name:

Specimen Description:

Comment:
Scan Type: 2Theta Scan
Start Angle: 2 deg.
Stop Angle: 65 deg.
Num Points: 3151
Step Size: 0.02 deg.
Scan Rate: 1.000000
Scan Mode: Continuous
Wavelength: 1.540562
\Kalpha1: 1.540562	\Kalpha2: 1.544390	\Kbeta: 1.392218

Optics:
		Detector:
			 Type: Fixed Slits
		Tube:
			 Type: Fixed Slits

Datas:
Peaks:

Position        Dspace          ESD(P)          Corr.Fact       Intensity       Rel.Int.        FWHM(L)         ESD(L)          Area            Source                  Curve           Strain  CSize   CSize_Source
[deg]           [A]             [deg]           [deg]           [CPS]           [CPS]           [deg]           [deg]           [deg]           [--]                    [--]            [--]    [--]    [--]
 48.5400         1.8740           0.0000          0.0000            25.83         0.36          0.0600            0.0000           2.0667       PFind                   None            0.00    0.00    None
 46.5800         1.9482           0.0000          0.0000            26.67         0.37          0.1600            0.0000           0.0000       PFind                   None            0.00    0.00    None
 23.8600         3.7263           0.0000          0.0000            28.33         0.39          0.0800            0.0000           0.5667       PFind                   None            0.00    0.00    None
 16.9200         5.2358           0.0000          0.0000            29.17         0.40          0.1000            0.0000           0.0000       PFind                   None            0.00    0.00    None
 63.2600         1.4688           0.0000          0.0000            30.00         0.41          0.0200            0.0000           0.0000       PFind                   None            0.00    0.00    None
 14.9400         5.9249           0.0000          0.0000            30.83         0.43          0.1600            0.0000           1.8500       PFind                   None            0.00    0.00    None
 10.8000         8.1850           0.0000          0.0000            31.67         0.44          0.1000            0.0000           2.5333       PFind                   None            0.00    0.00    None
 60.5800         1.5272           0.0000          0.0000            31.67         0.44          0.1200            0.0000           2.5333       PFind                   None            0.00    0.00    None
 19.0200         4.6622           0.0000          0.0000            32.50         0.45          0.0800            0.0000           0.6500       PFind                   None            0.00    0.00    None
 11.0600         7.9932           0.0000          0.0000            34.17         0.47          0.0400            0.0000           0.6833       PFind                   None            0.00    0.00    None
 52.0000         1.7571           0.0000          0.0000            35.83         0.49          0.0800            0.0000           1.4333       PFind                   None            0.00    0.00    None
 58.6000         1.5740           0.0000          0.0000            36.67         0.51          0.1000            0.0000           2.9333       PFind                   None            0.00    0.00    None
 60.9400         1.5190           0.0000          0.0000            38.33         0.53          0.1200            0.0000           0.7667       PFind                   None            0.00    0.00    None
  7.5400        11.7150           0.0000          0.0000            41.67         0.57          0.1600            0.0000           0.0000       PFind                   None            0.00    0.00    None
 48.1200         1.8894           0.0000          0.0000            42.50         0.59          0.1200            0.0000           6.8000       PFind                   None            0.00    0.00    None
 41.5800         2.1701           0.0000          0.0000            45.83         0.63          0.0400            0.0000           5.5000       PFind                   None            0.00    0.00    None
  5.3400        16.5355           0.0000          0.0000            47.50         0.66          0.1200            0.0000           3.8000       PFind                   None            0.00    0.00    None
 13.9200         6.3567           0.0000          0.0000            50.83         0.70          0.1600            0.0000           7.1167       PFind                   None            0.00    0.00    None
 14.8600         5.9566           0.0000          0.0000            51.67         0.71          0.1600            0.0000           0.0000       PFind                   None            0.00    0.00    None
  4.8800        18.0931           0.0000          0.0000            59.17         0.82          0.0800            0.0000           5.9167       PFind                   None            0.00    0.00    None
 46.9600         1.9333           0.0000          0.0000            64.17         0.89          0.0400            0.0000           8.9833       PFind                   None            0.00    0.00    None
  4.0800        21.6388           0.0000          0.0000            67.50         0.93          0.0800            0.0000           6.7500       PFind                   None            0.00    0.00    None
  6.3400        13.9295           0.0000          0.0000            68.33         0.94          0.0800            0.0000          10.9333       PFind                   None            0.00    0.00    None
  4.3800        20.1574           0.0000          0.0000            70.00         0.97          0.0600            0.0000           4.2000       PFind                   None            0.00    0.00    None
 34.4400         2.6019           0.0000          0.0000            75.83         1.05          0.0000            0.0000          12.1333       PFind                   None            0.00    0.00    None
 30.0800         2.9684           0.0000          0.0000            84.17         1.16          0.0600            0.0000           5.0500       PFind                   None            0.00    0.00    None
 33.7600         2.6528           0.0000          0.0000           106.67         1.47          0.0400            0.0000           4.2667       PFind                   None            0.00    0.00    None
 40.1400         2.2446           0.0000          0.0000           120.83         1.67          0.0800            0.0000           7.2500       PFind                   None            0.00    0.00    None
 54.8600         1.6721           0.0000          0.0000           136.67         1.89          0.0800            0.0000          16.4000       PFind                   None            0.00    0.00    None
 31.1000         2.8733           0.0000          0.0000           150.83         2.08          0.0200            0.0000          18.1000       PFind                   None            0.00    0.00    None
 38.6600         2.3271           0.0000          0.0000           210.83         2.91          0.0800            0.0000           4.2167       PFind                   None            0.00    0.00    None
 24.1400         3.6837           0.0000          0.0000           291.67         4.02          0.1200            0.0000          11.6667       PFind                   None            0.00    0.00    None
 24.5000         3.6304           0.0000          0.0000           330.83         4.56          0.1400            0.0000          46.3167       PFind                   None            0.00    0.00    None
 28.1400         3.1685           0.0000          0.0000           470.83         6.49          0.0200            0.0000          28.2500       PFind                   None            0.00    0.00    None
 27.8000         3.2065           0.0000          0.0000           653.33         9.01          0.1000            0.0000          91.4667       PFind                   None            0.00    0.00    None
 12.0400         7.3447           0.0000          0.0000           890.00        12.28          0.1200            0.0000          71.2000       PFind                   None            0.00    0.00    None
 27.5400         3.2361           0.0000          0.0000          1115.00        15.38          0.0200            0.0000         111.5000       PFind                   None            0.00    0.00    None
  8.7400        10.1091           0.0000          0.0000          3668.33        50.60          0.0600            0.0000         220.1000       PFind                   None            0.00    0.00    None
 26.4800         3.3632           0.0000          0.0000          7250.00       100.00          0.0600            0.0000         580.0000       PFind                   None            0.00    0.00    None