File: Generating XRD fingerprints/INPUT/Detrital data/G30_pf_RT.txt
Filename:
	C:\Program Files\Thermo Electron\WinXRD\Datafiles\FIEN2\FIEN\G30_RT.pk

File Created:
	February 25, 2021 - 10:49 AM

Specimen Id:
	G30  RT GRINDED

Specimen Name:

Specimen Description:

Comment:
Scan Type: 2Theta Scan
Start Angle: 3 deg.
Stop Angle: 65 deg.
Num Points: 3101
Step Size: 0.02 deg.
Scan Rate: 1.000000
Scan Mode: Continuous
Wavelength: 1.540562
\Kalpha1: 1.540562	\Kalpha2: 1.544390	\Kbeta: 1.392218

Optics:
		Detector:
			 Type: Fixed Slits
		Tube:
			 Type: Fixed Slits

Datas:
Peaks:

Position        Dspace          ESD(P)          Corr.Fact       Intensity       Rel.Int.        FWHM(L)         ESD(L)          Area            Source                  Curve           Strain  CSize   CSize_Source
[deg]           [A]             [deg]           [deg]           [CPS]           [CPS]           [deg]           [deg]           [deg]           [--]                    [--]            [--]    [--]    [--]
  4.8200        18.3182           0.0000          0.0000            59.17         2.55          0.1000            0.0000           0.0000       PFind                   None            0.00    0.00    None
  5.3600        16.4739           0.0000          0.0000            58.33         2.51          0.0600            0.0000           3.5000       PFind                   None            0.00    0.00    None
  6.3200        13.9735           0.0000          0.0000            65.00         2.80          0.0400            0.0000           7.8000       PFind                   None            0.00    0.00    None
  7.0600        12.5104           0.0000          0.0000            54.17         2.33          0.1600            0.0000           2.1667       PFind                   None            0.00    0.00    None
  7.8600        11.2388           0.0000          0.0000            45.83         1.98          0.0400            0.0000           0.9167       PFind                   None            0.00    0.00    None
  9.0800         9.7313           0.0000          0.0000            68.33         2.95          0.0800            0.0000           6.8333       PFind                   None            0.00    0.00    None
  9.6400         9.1672           0.0000          0.0000            36.67         1.58          0.1000            0.0000           2.2000       PFind                   None            0.00    0.00    None
 10.4600         8.4503           0.0000          0.0000           102.50         4.42          0.0600            0.0000           8.2000       PFind                   None            0.00    0.00    None
 11.1800         7.9077           0.0000          0.0000            28.33         1.22          0.0000            0.0000           2.2667       PFind                   None            0.00    0.00    None
 11.7200         7.5445           0.0000          0.0000            30.00         1.29          0.0400            0.0000           0.6000       PFind                   None            0.00    0.00    None
 12.8600         6.8782           0.0000          0.0000            32.50         1.40          0.1000            0.0000           1.9500       PFind                   None            0.00    0.00    None
 14.8400         5.9646           0.0000          0.0000            27.50         1.19          0.1200            0.0000           0.5500       PFind                   None            0.00    0.00    None
 16.6800         5.3106           0.0000          0.0000            23.33         1.01          0.0400            0.0000           0.0000       PFind                   None            0.00    0.00    None
 18.4800         4.7972           0.0000          0.0000            40.83         1.76          0.1200            0.0000           6.5333       PFind                   None            0.00    0.00    None
 19.7400         4.4937           0.0000          0.0000            45.83         1.98          0.0200            0.0000           7.3333       PFind                   None            0.00    0.00    None
 21.5000         4.1297           0.0000          0.0000            26.67         1.15          0.0800            0.0000           2.6667       PFind                   None            0.00    0.00    None
 22.8000         3.8971           0.0000          0.0000            43.33         1.87          0.0200            0.0000           4.3333       PFind                   None            0.00    0.00    None
 24.5400         3.6245           0.0000          0.0000           135.83         5.85          0.0200            0.0000          16.3000       PFind                   None            0.00    0.00    None
 26.8000         3.3238           0.0000          0.0000           610.00        26.29          0.1000            0.0000          73.2000       PFind                   None            0.00    0.00    None
 28.2200         3.1597           0.0000          0.0000            96.67         4.17          0.0800            0.0000           9.6667       PFind                   None            0.00    0.00    None
 29.7200         3.0035           0.0000          0.0000           110.83         4.78          0.0600            0.0000          13.3000       PFind                   None            0.00    0.00    None
 31.1800         2.8661           0.0000          0.0000            86.67         3.74          0.0600            0.0000          12.1333       PFind                   None            0.00    0.00    None
 33.8600         2.6452           0.0000          0.0000            78.33         3.38          0.0600            0.0000           7.8333       PFind                   None            0.00    0.00    None
 35.4600         2.5294           0.0000          0.0000            90.00         3.88          0.1000            0.0000          10.8000       PFind                   None            0.00    0.00    None
 36.9400         2.4314           0.0000          0.0000            24.17         1.04          0.0200            0.0000           1.4500       PFind                   None            0.00    0.00    None
 38.9000         2.3133           0.0000          0.0000            28.33         1.22          0.0800            0.0000           2.2667       PFind                   None            0.00    0.00    None
 40.1800         2.2425           0.0000          0.0000           100.83         4.35          0.1000            0.0000           6.0500       PFind                   None            0.00    0.00    None
 43.5400         2.0769           0.0000          0.0000            43.33         1.87          0.0200            0.0000           4.3333       PFind                   None            0.00    0.00    None
 45.6800         1.9844           0.0000          0.0000           136.67         5.89          0.0800            0.0000          16.4000       PFind                   None            0.00    0.00    None
 47.8800         1.8983           0.0000          0.0000            36.67         1.58          0.0600            0.0000           4.4000       PFind                   None            0.00    0.00    None
 49.1400         1.8525           0.0000          0.0000            26.67         1.15          0.1200            0.0000           2.1333       PFind                   None            0.00    0.00    None
 51.1400         1.7847           0.0000          0.0000            30.00         1.29          0.0600            0.0000           0.0000       PFind                   None            0.00    0.00    None
 52.4200         1.7440           0.0000          0.0000            29.17         1.26          0.1200            0.0000           0.0000       PFind                   None            0.00    0.00    None
 54.7800         1.6744           0.0000          0.0000           150.00         6.47          0.0400            0.0000           9.0000       PFind                   None            0.00    0.00    None
 55.9000         1.6434           0.0000          0.0000            33.33         1.44          0.1400            0.0000           3.3333       PFind                   None            0.00    0.00    None
 58.6600         1.5725           0.0000          0.0000            24.17         1.04          0.1400            0.0000           2.9000       PFind                   None            0.00    0.00    None
 60.0200         1.5401           0.0000          0.0000           105.83         4.56          0.0800            0.0000          14.8167       PFind                   None            0.00    0.00    None
 61.3800         1.5092           0.0000          0.0000            47.50         2.05          0.0800            0.0000           7.6000       PFind                   None            0.00    0.00    None
 62.2000         1.4913           0.0000          0.0000            23.33         1.01          0.1400            0.0000           1.4000       PFind                   None            0.00    0.00    None
 64.1200         1.4512           0.0000          0.0000            44.17         1.90          0.1200            0.0000           1.7667       PFind                   None            0.00    0.00    None