File: Generating XRD fingerprints/INPUT/Detrital data/G31_pf_RT.txt
Filename:
	C:\Program Files\Thermo Electron\WinXRD\Datafiles\FIEN2\FIEN\G31_RT.pk

File Created:
	February 25, 2021 - 10:49 AM

Specimen Id:
	G31 RT

Specimen Name:

Specimen Description:

Comment:
Scan Type: 2Theta Scan
Start Angle: 3 deg.
Stop Angle: 65 deg.
Num Points: 3101
Step Size: 0.02 deg.
Scan Rate: 1.000000
Scan Mode: Continuous
Wavelength: 1.540562
\Kalpha1: 1.540562	\Kalpha2: 1.544390	\Kbeta: 1.392218

Optics:
		Detector:
			 Type: Fixed Slits
		Tube:
			 Type: Fixed Slits

Datas:
Peaks:

Position        Dspace          ESD(P)          Corr.Fact       Intensity       Rel.Int.        FWHM(L)         ESD(L)          Area            Source                  Curve           Strain  CSize   CSize_Source
[deg]           [A]             [deg]           [deg]           [CPS]           [CPS]           [deg]           [deg]           [deg]           [--]                    [--]            [--]    [--]    [--]
  4.7000        18.7856           0.0000          0.0000            46.67         2.23          0.1200            0.0000           2.8000       PFind                   None            0.00    0.00    None
  5.3400        16.5355           0.0000          0.0000            61.67         2.95          0.0600            0.0000           6.1667       PFind                   None            0.00    0.00    None
  6.3600        13.8857           0.0000          0.0000            60.83         2.91          0.1600            0.0000           6.0833       PFind                   None            0.00    0.00    None
  6.6800        13.2212           0.0000          0.0000            52.50         2.51          0.1200            0.0000           0.0000       PFind                   None            0.00    0.00    None
  7.0200        12.5816           0.0000          0.0000            49.17         2.35          0.1000            0.0000           0.0000       PFind                   None            0.00    0.00    None
  7.3800        11.9687           0.0000          0.0000            40.83         1.95          0.1200            0.0000           2.4500       PFind                   None            0.00    0.00    None
  8.0400        10.9876           0.0000          0.0000            35.00         1.68          0.0000            0.0000           0.0000       PFind                   None            0.00    0.00    None
  9.0800         9.7313           0.0000          0.0000            61.67         2.95          0.0000            0.0000           3.7000       PFind                   None            0.00    0.00    None
  9.6600         9.1483           0.0000          0.0000            45.00         2.15          0.1600            0.0000           0.0000       PFind                   None            0.00    0.00    None
 10.1400         8.7163           0.0000          0.0000            35.00         1.68          0.0000            0.0000           1.4000       PFind                   None            0.00    0.00    None
 10.9200         8.0954           0.0000          0.0000            29.17         1.40          0.1600            0.0000           1.1667       PFind                   None            0.00    0.00    None
 12.0800         7.3205           0.0000          0.0000           243.33        11.65          0.0000            0.0000          19.4667       PFind                   None            0.00    0.00    None
 13.3400         6.6317           0.0000          0.0000            28.33         1.36          0.0600            0.0000           0.5667       PFind                   None            0.00    0.00    None
 13.7800         6.4210           0.0000          0.0000            39.17         1.87          0.1600            0.0000           0.7833       PFind                   None            0.00    0.00    None
 14.6200         6.0539           0.0000          0.0000            35.00         1.68          0.0400            0.0000           0.0000       PFind                   None            0.00    0.00    None
 15.0600         5.8780           0.0000          0.0000            32.50         1.56          0.0800            0.0000           0.6500       PFind                   None            0.00    0.00    None
 15.7800         5.6114           0.0000          0.0000            29.17         1.40          0.1200            0.0000           4.0833       PFind                   None            0.00    0.00    None
 17.7000         5.0068           0.0000          0.0000           143.33         6.86          0.0000            0.0000          17.2000       PFind                   None            0.00    0.00    None
 18.4600         4.8023           0.0000          0.0000            71.67         3.43          0.0000            0.0000           7.1667       PFind                   None            0.00    0.00    None
 19.8000         4.4802           0.0000          0.0000            64.17         3.07          0.0000            0.0000           6.4167       PFind                   None            0.00    0.00    None
 20.7400         4.2792           0.0000          0.0000           362.50        17.35          0.1000            0.0000          29.0000       PFind                   None            0.00    0.00    None
 22.9600         3.8703           0.0000          0.0000            43.33         2.07          0.1600            0.0000           4.3333       PFind                   None            0.00    0.00    None
 24.1400         3.6837           0.0000          0.0000           132.50         6.34          0.0600            0.0000          13.2500       PFind                   None            0.00    0.00    None
 25.0400         3.5533           0.0000          0.0000           141.67         6.78          0.0800            0.0000          22.6667       PFind                   None            0.00    0.00    None
 26.7600         3.3287           0.0000          0.0000           403.33        19.31          0.0600            0.0000          64.5333       PFind                   None            0.00    0.00    None
 28.0800         3.1751           0.0000          0.0000            61.67         2.95          0.1200            0.0000           9.8667       PFind                   None            0.00    0.00    None
 29.8000         2.9957           0.0000          0.0000            82.50         3.95          0.0400            0.0000          13.2000       PFind                   None            0.00    0.00    None
 30.8000         2.9006           0.0000          0.0000            39.17         1.87          0.0400            0.0000           0.7833       PFind                   None            0.00    0.00    None
 31.1400         2.8697           0.0000          0.0000           109.17         5.23          0.0400            0.0000          13.1000       PFind                   None            0.00    0.00    None
 32.0000         2.7945           0.0000          0.0000            48.33         2.31          0.1600            0.0000           6.7667       PFind                   None            0.00    0.00    None
 34.8800         2.5701           0.0000          0.0000            91.67         4.39          0.0600            0.0000          14.6667       PFind                   None            0.00    0.00    None
 36.0000         2.4927           0.0000          0.0000            38.33         1.83          0.0600            0.0000           2.3000       PFind                   None            0.00    0.00    None
 37.3200         2.4075           0.0000          0.0000            53.33         2.55          0.0800            0.0000           7.4667       PFind                   None            0.00    0.00    None
 39.3400         2.2884           0.0000          0.0000           127.50         6.10          0.1200            0.0000          10.2000       PFind                   None            0.00    0.00    None
 41.8200         2.1582           0.0000          0.0000            40.83         1.95          0.0200            0.0000           5.7167       PFind                   None            0.00    0.00    None
 42.8200         2.1101           0.0000          0.0000            30.83         1.48          0.0600            0.0000           0.0000       PFind                   None            0.00    0.00    None
 43.8800         2.0616           0.0000          0.0000            43.33         2.07          0.1000            0.0000           4.3333       PFind                   None            0.00    0.00    None
 45.6600         1.9853           0.0000          0.0000           164.17         7.86          0.0600            0.0000          19.7000       PFind                   None            0.00    0.00    None
 49.8200         1.8288           0.0000          0.0000            50.00         2.39          0.1000            0.0000           8.0000       PFind                   None            0.00    0.00    None
 50.9800         1.7899           0.0000          0.0000           114.17         5.46          0.0600            0.0000           6.8500       PFind                   None            0.00    0.00    None
 53.2200         1.7197           0.0000          0.0000            38.33         1.83          0.0000            0.0000           1.5333       PFind                   None            0.00    0.00    None
 55.0200         1.6676           0.0000          0.0000            86.67         4.15          0.1000            0.0000           3.4667       PFind                   None            0.00    0.00    None
 58.5600         1.5750           0.0000          0.0000            30.83         1.48          0.0600            0.0000           0.6167       PFind                   None            0.00    0.00    None
 59.8200         1.5448           0.0000          0.0000           247.50        11.85          0.0800            0.0000          24.7500       PFind                   None            0.00    0.00    None
 60.9000         1.5199           0.0000          0.0000            30.83         1.48          0.0400            0.0000           2.4667       PFind                   None            0.00    0.00    None
 61.7000         1.5021           0.0000          0.0000            36.67         1.76          0.1600            0.0000           2.9333       PFind                   None            0.00    0.00    None
 64.1000         1.4516           0.0000          0.0000            51.67         2.47          0.0400            0.0000           3.1000       PFind                   None            0.00    0.00    None
 64.6400         1.4407           0.0000          0.0000            48.33         2.31          0.1600            0.0000           6.7667       PFind                   None            0.00    0.00    None