File: Generating XRD fingerprints/INPUT/Detrital data/G32_PF_RT.txt
Filename:
	C:\Program Files\Thermo Electron\WinXRD\Datafiles\FIEN2\GEO\G32_RT.pk

File Created:
	February 25, 2021 - 09:39 AM

Specimen Id:
	G32_RT

Specimen Name:

Specimen Description:

Comment:
Scan Type: 2Theta Scan
Start Angle: 3 deg.
Stop Angle: 65 deg.
Num Points: 3101
Step Size: 0.02 deg.
Scan Rate: 1.000000
Scan Mode: Continuous
Wavelength: 1.540562
\Kalpha1: 1.540562	\Kalpha2: 1.544390	\Kbeta: 1.392218

Optics:
		Detector:
			 Type: Fixed Slits
		Tube:
			 Type: Fixed Slits

Datas:
Peaks:

Position        Dspace          ESD(P)          Corr.Fact       Intensity       Rel.Int.        FWHM(L)         ESD(L)          Area            Source                  Curve           Strain  CSize   CSize_Source
[deg]           [A]             [deg]           [deg]           [CPS]           [CPS]           [deg]           [deg]           [deg]           [--]                    [--]            [--]    [--]    [--]
  4.7000        18.7856           0.0000          0.0000            62.50         2.28          0.1000            0.0000           6.2500       PFind                   None            0.00    0.00    None
  5.4000        16.3519           0.0000          0.0000            50.83         1.86          0.0200            0.0000           3.0500       PFind                   None            0.00    0.00    None
  5.9200        14.9167           0.0000          0.0000            72.50         2.65          0.1200            0.0000          11.6000       PFind                   None            0.00    0.00    None
  6.6600        13.2609           0.0000          0.0000            41.67         1.52          0.0600            0.0000           4.1667       PFind                   None            0.00    0.00    None
  7.5400        11.7150           0.0000          0.0000            49.17         1.79          0.0400            0.0000           3.9333       PFind                   None            0.00    0.00    None
  8.2600        10.6954           0.0000          0.0000            55.00         2.01          0.1200            0.0000           2.2000       PFind                   None            0.00    0.00    None
  9.1400         9.6675           0.0000          0.0000            39.17         1.43          0.1600            0.0000           3.1333       PFind                   None            0.00    0.00    None
  9.6800         9.1294           0.0000          0.0000            36.67         1.34          0.1600            0.0000           4.4000       PFind                   None            0.00    0.00    None
 10.6600         8.2922           0.0000          0.0000            34.17         1.25          0.1200            0.0000           2.0500       PFind                   None            0.00    0.00    None
 11.2200         7.8796           0.0000          0.0000            24.17         0.88          0.1000            0.0000           0.0000       PFind                   None            0.00    0.00    None
 12.1000         7.3084           0.0000          0.0000           169.17         6.17          0.1000            0.0000          20.3000       PFind                   None            0.00    0.00    None
 13.0600         6.7733           0.0000          0.0000            38.33         1.40          0.0400            0.0000           0.0000       PFind                   None            0.00    0.00    None
 14.2800         6.1972           0.0000          0.0000            28.33         1.03          0.0600            0.0000           2.2667       PFind                   None            0.00    0.00    None
 15.0000         5.9014           0.0000          0.0000            29.17         1.06          0.0400            0.0000           0.0000       PFind                   None            0.00    0.00    None
 15.8800         5.5763           0.0000          0.0000            25.83         0.94          0.1000            0.0000           2.5833       PFind                   None            0.00    0.00    None
 17.7200         5.0012           0.0000          0.0000           221.67         8.09          0.1200            0.0000          22.1667       PFind                   None            0.00    0.00    None
 18.6800         4.7462           0.0000          0.0000            88.33         3.22          0.0000            0.0000           7.0667       PFind                   None            0.00    0.00    None
 19.7200         4.4982           0.0000          0.0000            35.00         1.28          0.1600            0.0000           3.5000       PFind                   None            0.00    0.00    None
 20.3000         4.3710           0.0000          0.0000            20.83         0.76          0.0600            0.0000           0.4167       PFind                   None            0.00    0.00    None
 21.9400         4.0478           0.0000          0.0000            80.83         2.95          0.0600            0.0000           3.2333       PFind                   None            0.00    0.00    None
 22.9600         3.8703           0.0000          0.0000            49.17         1.79          0.0400            0.0000           2.9500       PFind                   None            0.00    0.00    None
 24.5200         3.6274           0.0000          0.0000           175.83         6.42          0.1200            0.0000          21.1000       PFind                   None            0.00    0.00    None
 25.8200         3.4477           0.0000          0.0000            30.00         1.09          0.0800            0.0000           0.0000       PFind                   None            0.00    0.00    None
 27.4000         3.2524           0.0000          0.0000           218.33         7.97          0.0800            0.0000           4.3667       PFind                   None            0.00    0.00    None
 28.5000         3.1293           0.0000          0.0000            51.67         1.89          0.1000            0.0000           8.2667       PFind                   None            0.00    0.00    None
 30.1800         2.9588           0.0000          0.0000            96.67         3.53          0.1200            0.0000          13.5333       PFind                   None            0.00    0.00    None
 31.3600         2.8501           0.0000          0.0000            36.67         1.34          0.0400            0.0000           2.2000       PFind                   None            0.00    0.00    None
 33.3600         2.6837           0.0000          0.0000            67.50         2.46          0.1200            0.0000           2.7000       PFind                   None            0.00    0.00    None
 34.9000         2.5687           0.0000          0.0000            79.17         2.89          0.0800            0.0000          12.6667       PFind                   None            0.00    0.00    None
 37.1600         2.4175           0.0000          0.0000            42.50         1.55          0.0200            0.0000           0.8500       PFind                   None            0.00    0.00    None
 38.5200         2.3352           0.0000          0.0000            33.33         1.22          0.0600            0.0000           2.6667       PFind                   None            0.00    0.00    None
 40.2000         2.2414           0.0000          0.0000           375.00        13.69          0.0200            0.0000          22.5000       PFind                   None            0.00    0.00    None
 41.8400         2.1573           0.0000          0.0000            30.00         1.09          0.1600            0.0000           0.0000       PFind                   None            0.00    0.00    None
 44.3800         2.0395           0.0000          0.0000           260.83         9.52          0.0200            0.0000          41.7333       PFind                   None            0.00    0.00    None
 46.2000         1.9633           0.0000          0.0000            22.50         0.82          0.0200            0.0000           0.9000       PFind                   None            0.00    0.00    None
 47.9600         1.8953           0.0000          0.0000            36.67         1.34          0.1400            0.0000           2.9333       PFind                   None            0.00    0.00    None
 49.8600         1.8274           0.0000          0.0000            66.67         2.43          0.0400            0.0000          10.6667       PFind                   None            0.00    0.00    None
 52.1200         1.7534           0.0000          0.0000            20.83         0.76          0.1600            0.0000           0.4167       PFind                   None            0.00    0.00    None
 54.7800         1.6744           0.0000          0.0000           106.67         3.89          0.0000            0.0000           8.5333       PFind                   None            0.00    0.00    None
 56.6000         1.6248           0.0000          0.0000            25.00         0.91          0.0400            0.0000           1.5000       PFind                   None            0.00    0.00    None
 57.9600         1.5898           0.0000          0.0000            25.00         0.91          0.0400            0.0000           1.0000       PFind                   None            0.00    0.00    None
 59.1200         1.5614           0.0000          0.0000            27.50         1.00          0.0000            0.0000           1.6500       PFind                   None            0.00    0.00    None
 60.6400         1.5258           0.0000          0.0000            27.50         1.00          0.0800            0.0000           0.0000       PFind                   None            0.00    0.00    None
 62.6600         1.4814           0.0000          0.0000            23.33         0.85          0.0600            0.0000           0.4667       PFind                   None            0.00    0.00    None
 64.1000         1.4516           0.0000          0.0000            25.00         0.91          0.0400            0.0000           2.5000       PFind                   None            0.00    0.00    None