File: Generating XRD fingerprints/INPUT/Detrital data/G33_pf_RT.txt
Filename:
	C:\Program Files\Thermo Electron\WinXRD\Datafiles\FIEN2\GEO\G33_RT.pk

File Created:
	February 25, 2021 - 09:40 AM

Specimen Id:
	G33_RT

Specimen Name:

Specimen Description:

Comment:
Scan Type: 2Theta Scan
Start Angle: 3 deg.
Stop Angle: 65 deg.
Num Points: 3101
Step Size: 0.02 deg.
Scan Rate: 1.000000
Scan Mode: Continuous
Wavelength: 1.540562
\Kalpha1: 1.540562	\Kalpha2: 1.544390	\Kbeta: 1.392218

Optics:
		Detector:
			 Type: Fixed Slits
		Tube:
			 Type: Fixed Slits

Datas:
Peaks:

Position        Dspace          ESD(P)          Corr.Fact       Intensity       Rel.Int.        FWHM(L)         ESD(L)          Area            Source                  Curve           Strain  CSize   CSize_Source
[deg]           [A]             [deg]           [deg]           [CPS]           [CPS]           [deg]           [deg]           [deg]           [--]                    [--]            [--]    [--]    [--]
  4.8600        18.1675           0.0000          0.0000            63.33         1.86          0.1000            0.0000           5.0667       PFind                   None            0.00    0.00    None
  5.2800        16.7233           0.0000          0.0000            48.33         1.42          0.1000            0.0000           4.8333       PFind                   None            0.00    0.00    None
  5.8000        15.2251           0.0000          0.0000            44.17         1.30          0.1200            0.0000           3.5333       PFind                   None            0.00    0.00    None
  6.2000        14.2437           0.0000          0.0000           108.33         3.18          0.0800            0.0000          17.3333       PFind                   None            0.00    0.00    None
  6.9000        12.8002           0.0000          0.0000            43.33         1.27          0.0800            0.0000           0.8667       PFind                   None            0.00    0.00    None
  7.4400        11.8723           0.0000          0.0000            60.83         1.79          0.0400            0.0000           0.0000       PFind                   None            0.00    0.00    None
  8.5400        10.3454           0.0000          0.0000            55.83         1.64          0.1200            0.0000           3.3500       PFind                   None            0.00    0.00    None
  9.0600         9.7527           0.0000          0.0000            58.33         1.71          0.0600            0.0000           4.6667       PFind                   None            0.00    0.00    None
  9.4400         9.3610           0.0000          0.0000            55.83         1.64          0.1600            0.0000           2.2333       PFind                   None            0.00    0.00    None
 10.5400         8.3864           0.0000          0.0000            89.17         2.62          0.1000            0.0000           5.3500       PFind                   None            0.00    0.00    None
 12.2200         7.2369           0.0000          0.0000           435.00        12.77          0.0600            0.0000          52.2000       PFind                   None            0.00    0.00    None
 13.8600         6.3841           0.0000          0.0000            66.67         1.96          0.1000            0.0000           1.3333       PFind                   None            0.00    0.00    None
 18.5800         4.7716           0.0000          0.0000            59.17         1.74          0.1000            0.0000           9.4667       PFind                   None            0.00    0.00    None
 19.5400         4.5392           0.0000          0.0000            40.00         1.17          0.0800            0.0000           0.0000       PFind                   None            0.00    0.00    None
 20.8400         4.2589           0.0000          0.0000           704.17        20.67          0.0000            0.0000          42.2500       PFind                   None            0.00    0.00    None
 22.4000         3.9657           0.0000          0.0000            46.67         1.37          0.0800            0.0000           3.7333       PFind                   None            0.00    0.00    None
 23.5400         3.7762           0.0000          0.0000           168.33         4.94          0.0600            0.0000          13.4667       PFind                   None            0.00    0.00    None
 24.6000         3.6158           0.0000          0.0000           540.83        15.88          0.0200            0.0000          64.9000       PFind                   None            0.00    0.00    None
 25.1200         3.5421           0.0000          0.0000           176.67         5.19          0.1600            0.0000          24.7333       PFind                   None            0.00    0.00    None
 26.6400         3.3434           0.0000          0.0000          3406.67       100.00          0.0800            0.0000         340.6667       PFind                   None            0.00    0.00    None
 27.9200         3.1929           0.0000          0.0000           560.83        16.46          0.1000            0.0000          67.3000       PFind                   None            0.00    0.00    None
 28.6600         3.1122           0.0000          0.0000           168.33         4.94          0.1200            0.0000          23.5667       PFind                   None            0.00    0.00    None
 30.0200         2.9742           0.0000          0.0000            63.33         1.86          0.1600            0.0000          10.1333       PFind                   None            0.00    0.00    None
 30.4400         2.9341           0.0000          0.0000            90.00         2.64          0.1600            0.0000           9.0000       PFind                   None            0.00    0.00    None
 31.2400         2.8608           0.0000          0.0000            84.17         2.47          0.1200            0.0000           8.4167       PFind                   None            0.00    0.00    None
 32.0200         2.7928           0.0000          0.0000            54.17         1.59          0.1600            0.0000           5.4167       PFind                   None            0.00    0.00    None
 33.0400         2.7089           0.0000          0.0000            90.83         2.67          0.1000            0.0000           5.4500       PFind                   None            0.00    0.00    None
 34.5400         2.5946           0.0000          0.0000            88.33         2.59          0.1400            0.0000          10.6000       PFind                   None            0.00    0.00    None
 35.5600         2.5225           0.0000          0.0000            89.17         2.62          0.1400            0.0000          14.2667       PFind                   None            0.00    0.00    None
 36.5600         2.4558           0.0000          0.0000           300.83         8.83          0.0200            0.0000          48.1333       PFind                   None            0.00    0.00    None
 37.6600         2.3865           0.0000          0.0000            72.50         2.13          0.1400            0.0000          11.6000       PFind                   None            0.00    0.00    None
 40.2800         2.2371           0.0000          0.0000           124.17         3.64          0.1600            0.0000          17.3833       PFind                   None            0.00    0.00    None
 41.2600         2.1862           0.0000          0.0000            47.50         1.39          0.1400            0.0000           1.9000       PFind                   None            0.00    0.00    None
 42.4200         2.1291           0.0000          0.0000           200.83         5.90          0.1400            0.0000          12.0500       PFind                   None            0.00    0.00    None
 44.9000         2.0171           0.0000          0.0000            46.67         1.37          0.0400            0.0000           4.6667       PFind                   None            0.00    0.00    None
 45.5400         1.9902           0.0000          0.0000           151.67         4.45          0.1200            0.0000          24.2667       PFind                   None            0.00    0.00    None
 47.0600         1.9294           0.0000          0.0000            40.83         1.20          0.1600            0.0000           3.2667       PFind                   None            0.00    0.00    None
 48.3800         1.8798           0.0000          0.0000            50.00         1.47          0.0400            0.0000           2.0000       PFind                   None            0.00    0.00    None
 50.1000         1.8192           0.0000          0.0000           414.17        12.16          0.0000            0.0000          33.1333       PFind                   None            0.00    0.00    None
 50.6800         1.7998           0.0000          0.0000            77.50         2.27          0.1600            0.0000          12.4000       PFind                   None            0.00    0.00    None
 54.8400         1.6727           0.0000          0.0000           141.67         4.16          0.0200            0.0000          14.1667       PFind                   None            0.00    0.00    None
 55.7200         1.6483           0.0000          0.0000            40.83         1.20          0.1200            0.0000           3.2667       PFind                   None            0.00    0.00    None
 60.0800         1.5387           0.0000          0.0000           211.67         6.21          0.0600            0.0000          16.9333       PFind                   None            0.00    0.00    None
 61.6800         1.5026           0.0000          0.0000            50.00         1.47          0.0600            0.0000           8.0000       PFind                   None            0.00    0.00    None
 64.1600         1.4503           0.0000          0.0000            57.50         1.69          0.0600            0.0000           5.7500       PFind                   None            0.00    0.00    None