File: Generating XRD fingerprints/INPUT/Detrital data/G38_pf_RT.txt
Filename:
	C:\Program Files\Thermo Electron\WinXRD\Datafiles\FIEN2\GEO\G38_RT.pk

File Created:
	February 25, 2021 - 09:42 AM

Specimen Id:
	G38_RT

Specimen Name:

Specimen Description:

Comment:
Scan Type: 2Theta Scan
Start Angle: 3 deg.
Stop Angle: 65 deg.
Num Points: 3101
Step Size: 0.02 deg.
Scan Rate: 1.000000
Scan Mode: Continuous
Wavelength: 1.540562
\Kalpha1: 1.540562	\Kalpha2: 1.544390	\Kbeta: 1.392218

Optics:
		Detector:
			 Type: Fixed Slits
		Tube:
			 Type: Fixed Slits

Datas:
Peaks:

Position        Dspace          ESD(P)          Corr.Fact       Intensity       Rel.Int.        FWHM(L)         ESD(L)          Area            Source                  Curve           Strain  CSize   CSize_Source
[deg]           [A]             [deg]           [deg]           [CPS]           [CPS]           [deg]           [deg]           [deg]           [--]                    [--]            [--]    [--]    [--]
  4.7400        18.6272           0.0000          0.0000            77.50         3.59          0.0200            0.0000           0.0000       PFind                   None            0.00    0.00    None
  5.5000        16.0548           0.0000          0.0000            65.00         3.01          0.0000            0.0000           1.3000       PFind                   None            0.00    0.00    None
  6.2400        14.1525           0.0000          0.0000           150.00         6.94          0.1200            0.0000          18.0000       PFind                   None            0.00    0.00    None
  6.9400        12.7265           0.0000          0.0000            31.67         1.47          0.0200            0.0000           1.2667       PFind                   None            0.00    0.00    None
  7.8600        11.2388           0.0000          0.0000            28.33         1.31          0.0200            0.0000           0.0000       PFind                   None            0.00    0.00    None
  9.2200         9.5838           0.0000          0.0000            67.50         3.12          0.0400            0.0000           8.1000       PFind                   None            0.00    0.00    None
  9.9800         8.8557           0.0000          0.0000            27.50         1.27          0.1000            0.0000           1.1000       PFind                   None            0.00    0.00    None
 11.1600         7.9218           0.0000          0.0000            27.50         1.27          0.0800            0.0000           1.6500       PFind                   None            0.00    0.00    None
 12.1800         7.2606           0.0000          0.0000           479.17        22.18          0.0600            0.0000          38.3333       PFind                   None            0.00    0.00    None
 13.2600         6.6716           0.0000          0.0000            32.50         1.50          0.0600            0.0000           0.6500       PFind                   None            0.00    0.00    None
 14.0000         6.3205           0.0000          0.0000            38.33         1.77          0.0800            0.0000           2.3000       PFind                   None            0.00    0.00    None
 14.9400         5.9249           0.0000          0.0000            25.83         1.20          0.1200            0.0000           0.5167       PFind                   None            0.00    0.00    None
 16.0600         5.5142           0.0000          0.0000            28.33         1.31          0.0800            0.0000           1.1333       PFind                   None            0.00    0.00    None
 17.8400         4.9678           0.0000          0.0000           331.67        15.35          0.0800            0.0000          33.1667       PFind                   None            0.00    0.00    None
 19.0400         4.6573           0.0000          0.0000            26.67         1.23          0.0600            0.0000           0.0000       PFind                   None            0.00    0.00    None
 19.9800         4.4403           0.0000          0.0000            44.17         2.04          0.1000            0.0000           3.5333       PFind                   None            0.00    0.00    None
 20.8800         4.2509           0.0000          0.0000           703.33        32.55          0.0200            0.0000          42.2000       PFind                   None            0.00    0.00    None
 22.8800         3.8836           0.0000          0.0000            47.50         2.20          0.1000            0.0000           7.6000       PFind                   None            0.00    0.00    None
 23.8000         3.7355           0.0000          0.0000            31.67         1.47          0.0000            0.0000           0.6333       PFind                   None            0.00    0.00    None
 24.7800         3.5900           0.0000          0.0000            72.50         3.36          0.0000            0.0000          10.1500       PFind                   None            0.00    0.00    None
 26.8800         3.3141           0.0000          0.0000           867.50        40.15          0.0800            0.0000         138.8000       PFind                   None            0.00    0.00    None
 28.1600         3.1663           0.0000          0.0000           112.50         5.21          0.0200            0.0000          18.0000       PFind                   None            0.00    0.00    None
 29.8400         2.9917           0.0000          0.0000            84.17         3.90          0.0800            0.0000          13.4667       PFind                   None            0.00    0.00    None
 31.2400         2.8608           0.0000          0.0000            80.83         3.74          0.0000            0.0000           9.7000       PFind                   None            0.00    0.00    None
 32.2600         2.7726           0.0000          0.0000            49.17         2.28          0.1400            0.0000           4.9167       PFind                   None            0.00    0.00    None
 34.6200         2.5888           0.0000          0.0000            50.00         2.31          0.0200            0.0000           8.0000       PFind                   None            0.00    0.00    None
 36.1200         2.4847           0.0000          0.0000            80.83         3.74          0.0000            0.0000           9.7000       PFind                   None            0.00    0.00    None
 37.3800         2.4038           0.0000          0.0000            65.00         3.01          0.0000            0.0000           3.9000       PFind                   None            0.00    0.00    None
 38.5000         2.3364           0.0000          0.0000            25.83         1.20          0.0600            0.0000           1.0333       PFind                   None            0.00    0.00    None
 40.3000         2.2361           0.0000          0.0000           113.33         5.24          0.0600            0.0000          15.8667       PFind                   None            0.00    0.00    None
 42.7400         2.1139           0.0000          0.0000            28.33         1.31          0.0600            0.0000           1.1333       PFind                   None            0.00    0.00    None
 44.9800         2.0137           0.0000          0.0000            42.50         1.97          0.0000            0.0000           6.8000       PFind                   None            0.00    0.00    None
 47.1200         1.9271           0.0000          0.0000            49.17         2.28          0.0600            0.0000           3.9333       PFind                   None            0.00    0.00    None
 48.2200         1.8857           0.0000          0.0000            41.67         1.93          0.0800            0.0000           1.6667       PFind                   None            0.00    0.00    None
 50.6000         1.8024           0.0000          0.0000            60.83         2.82          0.1600            0.0000           6.0833       PFind                   None            0.00    0.00    None
 52.2800         1.7484           0.0000          0.0000            25.83         1.20          0.0000            0.0000           1.5500       PFind                   None            0.00    0.00    None
 53.1400         1.7221           0.0000          0.0000            25.00         1.16          0.0200            0.0000           1.0000       PFind                   None            0.00    0.00    None
 55.7200         1.6483           0.0000          0.0000            57.50         2.66          0.0200            0.0000           5.7500       PFind                   None            0.00    0.00    None
 58.1000         1.5863           0.0000          0.0000            37.50         1.74          0.0600            0.0000           0.0000       PFind                   None            0.00    0.00    None
 60.1200         1.5378           0.0000          0.0000           115.83         5.36          0.1000            0.0000          16.2167       PFind                   None            0.00    0.00    None
 61.6800         1.5026           0.0000          0.0000            30.00         1.39          0.0400            0.0000           4.8000       PFind                   None            0.00    0.00    None
 62.1200         1.4930           0.0000          0.0000            25.00         1.16          0.0400            0.0000           0.5000       PFind                   None            0.00    0.00    None
 64.2000         1.4495           0.0000          0.0000            40.00         1.85          0.1000            0.0000           6.4000       PFind                   None            0.00    0.00    None