File: Generating XRD fingerprints/INPUT/Detrital data/G42_pf_RT.txt
Filename:
	C:\Program Files\Thermo Electron\WinXRD\Datafiles\FIEN2\GEO\G42_RT.pk

File Created:
	February 25, 2021 - 09:43 AM

Specimen Id:
	G42_RT

Specimen Name:

Specimen Description:

Comment:
Scan Type: 2Theta Scan
Start Angle: 3 deg.
Stop Angle: 65 deg.
Num Points: 3101
Step Size: 0.02 deg.
Scan Rate: 1.000000
Scan Mode: Continuous
Wavelength: 1.540562
\Kalpha1: 1.540562	\Kalpha2: 1.544390	\Kbeta: 1.392218

Optics:
		Detector:
			 Type: Fixed Slits
		Tube:
			 Type: Fixed Slits

Datas:
Peaks:

Position        Dspace          ESD(P)          Corr.Fact       Intensity       Rel.Int.        FWHM(L)         ESD(L)          Area            Source                  Curve           Strain  CSize   CSize_Source
[deg]           [A]             [deg]           [deg]           [CPS]           [CPS]           [deg]           [deg]           [deg]           [--]                    [--]            [--]    [--]    [--]
  4.7800        18.4714           0.0000          0.0000            60.83         3.27          0.1600            0.0000           3.6500       PFind                   None            0.00    0.00    None
  5.2200        16.9154           0.0000          0.0000            47.50         2.55          0.1600            0.0000           0.9500       PFind                   None            0.00    0.00    None
  6.1800        14.2897           0.0000          0.0000           131.67         7.07          0.0600            0.0000          13.1667       PFind                   None            0.00    0.00    None
  6.9600        12.6899           0.0000          0.0000            45.83         2.46          0.1200            0.0000           5.5000       PFind                   None            0.00    0.00    None
  7.6200        11.5922           0.0000          0.0000            35.83         1.92          0.0200            0.0000           2.8667       PFind                   None            0.00    0.00    None
  8.3600        10.5677           0.0000          0.0000            37.50         2.01          0.0400            0.0000           2.2500       PFind                   None            0.00    0.00    None
  9.5600         9.2437           0.0000          0.0000            30.83         1.66          0.0800            0.0000           1.2333       PFind                   None            0.00    0.00    None
 10.4600         8.4503           0.0000          0.0000           175.00         9.40          0.1000            0.0000           7.0000       PFind                   None            0.00    0.00    None
 11.8800         7.4433           0.0000          0.0000            39.17         2.10          0.1000            0.0000           4.7000       PFind                   None            0.00    0.00    None
 13.3600         6.6219           0.0000          0.0000            27.50         1.48          0.1400            0.0000           1.6500       PFind                   None            0.00    0.00    None
 14.9800         5.9092           0.0000          0.0000            35.00         1.88          0.1400            0.0000           4.2000       PFind                   None            0.00    0.00    None
 15.9200         5.5623           0.0000          0.0000            28.33         1.52          0.1000            0.0000           1.7000       PFind                   None            0.00    0.00    None
 18.4600         4.8023           0.0000          0.0000            43.33         2.33          0.0400            0.0000           3.4667       PFind                   None            0.00    0.00    None
 20.0600         4.4227           0.0000          0.0000            26.67         1.43          0.0400            0.0000           1.6000       PFind                   None            0.00    0.00    None
 22.7800         3.9004           0.0000          0.0000            48.33         2.60          0.1200            0.0000           4.8333       PFind                   None            0.00    0.00    None
 24.2400         3.6687           0.0000          0.0000           109.17         5.86          0.0400            0.0000           8.7333       PFind                   None            0.00    0.00    None
 25.5600         3.4822           0.0000          0.0000            95.00         5.10          0.0800            0.0000          15.2000       PFind                   None            0.00    0.00    None
 27.4400         3.2477           0.0000          0.0000           185.00         9.93          0.1200            0.0000          22.2000       PFind                   None            0.00    0.00    None
 28.5400         3.1250           0.0000          0.0000           116.67         6.26          0.0400            0.0000          14.0000       PFind                   None            0.00    0.00    None
 30.7800         2.9025           0.0000          0.0000            62.50         3.36          0.0800            0.0000          10.0000       PFind                   None            0.00    0.00    None
 32.0000         2.7945           0.0000          0.0000            56.67         3.04          0.0600            0.0000           7.9333       PFind                   None            0.00    0.00    None
 34.9600         2.5644           0.0000          0.0000           103.33         5.55          0.0600            0.0000          16.5333       PFind                   None            0.00    0.00    None
 35.9800         2.4940           0.0000          0.0000            38.33         2.06          0.0800            0.0000           2.3000       PFind                   None            0.00    0.00    None
 37.8400         2.3756           0.0000          0.0000            28.33         1.52          0.0200            0.0000           2.2667       PFind                   None            0.00    0.00    None
 40.2200         2.2403           0.0000          0.0000            65.83         3.53          0.0400            0.0000           6.5833       PFind                   None            0.00    0.00    None
 42.8000         2.1111           0.0000          0.0000            60.83         3.27          0.1000            0.0000           2.4333       PFind                   None            0.00    0.00    None
 44.0800         2.0527           0.0000          0.0000            30.00         1.61          0.0400            0.0000           4.2000       PFind                   None            0.00    0.00    None
 45.5400         1.9902           0.0000          0.0000           131.67         7.07          0.0600            0.0000          21.0667       PFind                   None            0.00    0.00    None
 48.2200         1.8857           0.0000          0.0000            36.67         1.97          0.1000            0.0000           2.2000       PFind                   None            0.00    0.00    None
 50.5400         1.8044           0.0000          0.0000            78.33         4.21          0.0200            0.0000          10.9667       PFind                   None            0.00    0.00    None
 52.2000         1.7509           0.0000          0.0000            46.67         2.51          0.1600            0.0000           6.5333       PFind                   None            0.00    0.00    None
 53.1200         1.7227           0.0000          0.0000            41.67         2.24          0.0800            0.0000           2.5000       PFind                   None            0.00    0.00    None
 55.2200         1.6621           0.0000          0.0000            54.17         2.91          0.1200            0.0000           4.3333       PFind                   None            0.00    0.00    None
 56.7600         1.6206           0.0000          0.0000            29.17         1.57          0.0800            0.0000           0.0000       PFind                   None            0.00    0.00    None
 58.3000         1.5814           0.0000          0.0000            26.67         1.43          0.0800            0.0000           0.0000       PFind                   None            0.00    0.00    None
 59.8800         1.5434           0.0000          0.0000           205.83        11.05          0.0400            0.0000          20.5833       PFind                   None            0.00    0.00    None
 61.4000         1.5087           0.0000          0.0000            52.50         2.82          0.0800            0.0000           8.4000       PFind                   None            0.00    0.00    None
 62.7200         1.4801           0.0000          0.0000            27.50         1.48          0.0000            0.0000           0.0000       PFind                   None            0.00    0.00    None
 63.9600         1.4544           0.0000          0.0000            50.00         2.68          0.1600            0.0000           5.0000       PFind                   None            0.00    0.00    None