File: Generating XRD fingerprints/INPUT/Detrital data/G44_pf_RT.txt
Filename:
	C:\Program Files\Thermo Electron\WinXRD\Datafiles\FIEN2\GEO\G44_RT.pk

File Created:
	February 25, 2021 - 09:44 AM

Specimen Id:
	G44_RT

Specimen Name:

Specimen Description:

Comment:
Scan Type: 2Theta Scan
Start Angle: 3 deg.
Stop Angle: 65 deg.
Num Points: 3101
Step Size: 0.02 deg.
Scan Rate: 1.000000
Scan Mode: Continuous
Wavelength: 1.540562
\Kalpha1: 1.540562	\Kalpha2: 1.544390	\Kbeta: 1.392218

Optics:
		Detector:
			 Type: Fixed Slits
		Tube:
			 Type: Fixed Slits

Datas:
Peaks:

Position        Dspace          ESD(P)          Corr.Fact       Intensity       Rel.Int.        FWHM(L)         ESD(L)          Area            Source                  Curve           Strain  CSize   CSize_Source
[deg]           [A]             [deg]           [deg]           [CPS]           [CPS]           [deg]           [deg]           [deg]           [--]                    [--]            [--]    [--]    [--]
  4.9200        17.9461           0.0000          0.0000            52.50         1.92          0.1000            0.0000           5.2500       PFind                   None            0.00    0.00    None
  5.5200        15.9967           0.0000          0.0000            56.67         2.07          0.0800            0.0000           2.2667       PFind                   None            0.00    0.00    None
  6.5000        13.5869           0.0000          0.0000            49.17         1.79          0.1000            0.0000           1.9667       PFind                   None            0.00    0.00    None
  6.8800        12.8373           0.0000          0.0000            54.17         1.98          0.1200            0.0000           0.0000       PFind                   None            0.00    0.00    None
  7.5200        11.7462           0.0000          0.0000            28.33         1.03          0.1200            0.0000           2.8333       PFind                   None            0.00    0.00    None
  8.0200        11.0149           0.0000          0.0000            38.33         1.40          0.0600            0.0000           3.8333       PFind                   None            0.00    0.00    None
  8.8400         9.9949           0.0000          0.0000           690.83        25.21          0.0600            0.0000          55.2667       PFind                   None            0.00    0.00    None
 10.0400         8.8029           0.0000          0.0000            30.00         1.09          0.1200            0.0000           0.0000       PFind                   None            0.00    0.00    None
 10.9400         8.0806           0.0000          0.0000            31.67         1.16          0.0800            0.0000           1.2667       PFind                   None            0.00    0.00    None
 12.1600         7.2725           0.0000          0.0000           223.33         8.15          0.0200            0.0000          17.8667       PFind                   None            0.00    0.00    None
 13.3200         6.6417           0.0000          0.0000            32.50         1.19          0.0800            0.0000           0.6500       PFind                   None            0.00    0.00    None
 13.8200         6.4025           0.0000          0.0000            61.67         2.25          0.1400            0.0000           0.0000       PFind                   None            0.00    0.00    None
 15.8400         5.5902           0.0000          0.0000            25.83         0.94          0.0800            0.0000           0.5167       PFind                   None            0.00    0.00    None
 16.7400         5.2917           0.0000          0.0000            26.67         0.97          0.0200            0.0000           1.6000       PFind                   None            0.00    0.00    None
 18.5200         4.7869           0.0000          0.0000            43.33         1.58          0.0400            0.0000           0.0000       PFind                   None            0.00    0.00    None
 19.2000         4.6189           0.0000          0.0000            26.67         0.97          0.0200            0.0000           1.0667       PFind                   None            0.00    0.00    None
 20.5600         4.3163           0.0000          0.0000            32.50         1.19          0.0400            0.0000           2.6000       PFind                   None            0.00    0.00    None
 21.3800         4.1526           0.0000          0.0000            25.00         0.91          0.0600            0.0000           0.5000       PFind                   None            0.00    0.00    None
 22.3400         3.9762           0.0000          0.0000            25.00         0.91          0.1200            0.0000           0.5000       PFind                   None            0.00    0.00    None
 23.8800         3.7232           0.0000          0.0000            46.67         1.70          0.0400            0.0000           4.6667       PFind                   None            0.00    0.00    None
 25.1400         3.5394           0.0000          0.0000           155.83         5.69          0.1600            0.0000          18.7000       PFind                   None            0.00    0.00    None
 26.6000         3.3483           0.0000          0.0000          2740.00       100.00          0.1000            0.0000         274.0000       PFind                   None            0.00    0.00    None
 27.8800         3.1974           0.0000          0.0000           350.83        12.80          0.1400            0.0000          42.1000       PFind                   None            0.00    0.00    None
 28.6000         3.1186           0.0000          0.0000            75.00         2.74          0.0000            0.0000           9.0000       PFind                   None            0.00    0.00    None
 30.4600         2.9322           0.0000          0.0000            76.67         2.80          0.0200            0.0000           3.0667       PFind                   None            0.00    0.00    None
 31.5400         2.8342           0.0000          0.0000            47.50         1.73          0.1400            0.0000           5.7000       PFind                   None            0.00    0.00    None
 33.8800         2.6437           0.0000          0.0000            25.83         0.94          0.0600            0.0000           1.5500       PFind                   None            0.00    0.00    None
 34.6200         2.5888           0.0000          0.0000            50.83         1.86          0.0800            0.0000           8.1333       PFind                   None            0.00    0.00    None
 35.8600         2.5021           0.0000          0.0000            25.83         0.94          0.0200            0.0000           2.0667       PFind                   None            0.00    0.00    None
 37.3000         2.4087           0.0000          0.0000           209.17         7.63          0.1200            0.0000           8.3667       PFind                   None            0.00    0.00    None
 38.8800         2.3144           0.0000          0.0000            25.83         0.94          0.0400            0.0000           0.0000       PFind                   None            0.00    0.00    None
 40.0200         2.2511           0.0000          0.0000            39.17         1.43          0.0600            0.0000           3.9167       PFind                   None            0.00    0.00    None
 41.1800         2.1903           0.0000          0.0000            32.50         1.19          0.0400            0.0000           3.2500       PFind                   None            0.00    0.00    None
 42.4200         2.1291           0.0000          0.0000           193.33         7.06          0.0800            0.0000          15.4667       PFind                   None            0.00    0.00    None
 43.8200         2.0643           0.0000          0.0000            56.67         2.07          0.0200            0.0000           4.5333       PFind                   None            0.00    0.00    None
 45.5800         1.9886           0.0000          0.0000           251.67         9.18          0.0000            0.0000          40.2667       PFind                   None            0.00    0.00    None
 47.9400         1.8960           0.0000          0.0000            44.17         1.61          0.1200            0.0000           3.5333       PFind                   None            0.00    0.00    None
 50.1200         1.8186           0.0000          0.0000           505.83        18.46          0.0400            0.0000          40.4667       PFind                   None            0.00    0.00    None
 51.2200         1.7821           0.0000          0.0000           174.17         6.36          0.0800            0.0000          10.4500       PFind                   None            0.00    0.00    None
 52.9000         1.7293           0.0000          0.0000            27.50         1.00          0.0600            0.0000           1.1000       PFind                   None            0.00    0.00    None
 54.6000         1.6795           0.0000          0.0000            27.50         1.00          0.1400            0.0000           0.0000       PFind                   None            0.00    0.00    None
 55.2800         1.6604           0.0000          0.0000            65.00         2.37          0.0800            0.0000           3.9000       PFind                   None            0.00    0.00    None
 56.0000         1.6407           0.0000          0.0000            42.50         1.55          0.0600            0.0000           3.4000       PFind                   None            0.00    0.00    None
 57.6400         1.5979           0.0000          0.0000            25.83         0.94          0.1200            0.0000           0.5167       PFind                   None            0.00    0.00    None
 59.0600         1.5628           0.0000          0.0000            30.00         1.09          0.0800            0.0000           0.6000       PFind                   None            0.00    0.00    None
 60.6200         1.5263           0.0000          0.0000            29.17         1.06          0.0400            0.0000           3.5000       PFind                   None            0.00    0.00    None
 61.3000         1.5110           0.0000          0.0000            25.83         0.94          0.0800            0.0000           1.5500       PFind                   None            0.00    0.00    None
 64.0200         1.4532           0.0000          0.0000            76.67         2.80          0.0000            0.0000           6.1333       PFind                   None            0.00    0.00    None
 64.8200         1.4372           0.0000          0.0000            28.33         1.03          0.0600            0.0000           1.7000       PFind                   None            0.00    0.00    None