File: Generating XRD fingerprints/INPUT/Detrital data/G47_pf_RT.txt
Filename:
	C:\Program Files\Thermo Electron\WinXRD\Datafiles\FIEN2\GEO\G47_RT.pk

File Created:
	February 25, 2021 - 09:46 AM

Specimen Id:
	G47_RT

Specimen Name:

Specimen Description:

Comment:
Scan Type: 2Theta Scan
Start Angle: 3 deg.
Stop Angle: 65 deg.
Num Points: 3101
Step Size: 0.02 deg.
Scan Rate: 1.000000
Scan Mode: Continuous
Wavelength: 1.540562
\Kalpha1: 1.540562	\Kalpha2: 1.544390	\Kbeta: 1.392218

Optics:
		Detector:
			 Type: Fixed Slits
		Tube:
			 Type: Fixed Slits

Datas:
Peaks:

Position        Dspace          ESD(P)          Corr.Fact       Intensity       Rel.Int.        FWHM(L)         ESD(L)          Area            Source                  Curve           Strain  CSize   CSize_Source
[deg]           [A]             [deg]           [deg]           [CPS]           [CPS]           [deg]           [deg]           [deg]           [--]                    [--]            [--]    [--]    [--]
  4.7000        18.7856           0.0000          0.0000            52.50         1.54          0.0600            0.0000           1.0500       PFind                   None            0.00    0.00    None
  5.6600        15.6013           0.0000          0.0000            47.50         1.40          0.1600            0.0000           7.6000       PFind                   None            0.00    0.00    None
  6.5000        13.5869           0.0000          0.0000            46.67         1.37          0.1200            0.0000           3.7333       PFind                   None            0.00    0.00    None
  7.1400        12.3704           0.0000          0.0000            40.83         1.20          0.1600            0.0000           0.8167       PFind                   None            0.00    0.00    None
  7.7200        11.4423           0.0000          0.0000            25.00         0.73          0.0800            0.0000           3.0000       PFind                   None            0.00    0.00    None
  8.7800        10.0631           0.0000          0.0000           490.83        14.43          0.1000            0.0000          29.4500       PFind                   None            0.00    0.00    None
  9.9600         8.8734           0.0000          0.0000            33.33         0.98          0.0600            0.0000           1.3333       PFind                   None            0.00    0.00    None
 11.0800         7.9788           0.0000          0.0000            45.83         1.35          0.1200            0.0000           0.0000       PFind                   None            0.00    0.00    None
 12.4000         7.1323           0.0000          0.0000           233.33         6.86          0.0000            0.0000          28.0000       PFind                   None            0.00    0.00    None
 13.6400         6.4865           0.0000          0.0000            33.33         0.98          0.0600            0.0000           5.3333       PFind                   None            0.00    0.00    None
 14.6800         6.0293           0.0000          0.0000            31.67         0.93          0.1200            0.0000           1.9000       PFind                   None            0.00    0.00    None
 15.7000         5.6398           0.0000          0.0000            30.00         0.88          0.1000            0.0000           1.2000       PFind                   None            0.00    0.00    None
 16.7600         5.2854           0.0000          0.0000            28.33         0.83          0.1200            0.0000           1.7000       PFind                   None            0.00    0.00    None
 18.3000         4.8439           0.0000          0.0000            38.33         1.13          0.0800            0.0000           3.8333       PFind                   None            0.00    0.00    None
 19.2400         4.6093           0.0000          0.0000            24.17         0.71          0.1000            0.0000           0.4833       PFind                   None            0.00    0.00    None
 20.3000         4.3710           0.0000          0.0000            25.00         0.73          0.1000            0.0000           0.5000       PFind                   None            0.00    0.00    None
 21.9600         4.0442           0.0000          0.0000           786.67        23.12          0.1200            0.0000          47.2000       PFind                   None            0.00    0.00    None
 22.9400         3.8736           0.0000          0.0000            98.33         2.89          0.0400            0.0000           9.8333       PFind                   None            0.00    0.00    None
 24.5200         3.6274           0.0000          0.0000           448.33        13.18          0.0200            0.0000          53.8000       PFind                   None            0.00    0.00    None
 26.7800         3.3262           0.0000          0.0000           526.67        15.48          0.1400            0.0000          73.7333       PFind                   None            0.00    0.00    None
 28.6200         3.1164           0.0000          0.0000           108.33         3.18          0.0000            0.0000          17.3333       PFind                   None            0.00    0.00    None
 30.3800         2.9398           0.0000          0.0000            54.17         1.59          0.0800            0.0000           6.5000       PFind                   None            0.00    0.00    None
 31.7600         2.8151           0.0000          0.0000            49.17         1.45          0.1000            0.0000           4.9167       PFind                   None            0.00    0.00    None
 32.9000         2.7201           0.0000          0.0000            30.00         0.88          0.0400            0.0000           1.2000       PFind                   None            0.00    0.00    None
 35.2000         2.5475           0.0000          0.0000            30.83         0.91          0.1600            0.0000           1.2333       PFind                   None            0.00    0.00    None
 36.8800         2.4352           0.0000          0.0000            68.33         2.01          0.0200            0.0000           2.7333       PFind                   None            0.00    0.00    None
 38.5200         2.3352           0.0000          0.0000            37.50         1.10          0.0200            0.0000           4.5000       PFind                   None            0.00    0.00    None
 40.1600         2.2435           0.0000          0.0000            86.67         2.55          0.0400            0.0000           5.2000       PFind                   None            0.00    0.00    None
 43.5000         2.0787           0.0000          0.0000            63.33         1.86          0.0800            0.0000           7.6000       PFind                   None            0.00    0.00    None
 45.5000         1.9919           0.0000          0.0000           189.17         5.56          0.1200            0.0000          30.2667       PFind                   None            0.00    0.00    None
 48.5600         1.8733           0.0000          0.0000            31.67         0.93          0.0600            0.0000           0.0000       PFind                   None            0.00    0.00    None
 50.4400         1.8078           0.0000          0.0000            60.83         1.79          0.0600            0.0000           6.0833       PFind                   None            0.00    0.00    None
 52.0200         1.7565           0.0000          0.0000            77.50         2.28          0.0800            0.0000           4.6500       PFind                   None            0.00    0.00    None
 53.1000         1.7233           0.0000          0.0000            35.00         1.03          0.1000            0.0000           2.8000       PFind                   None            0.00    0.00    None
 55.2200         1.6621           0.0000          0.0000            39.17         1.15          0.1200            0.0000           2.3500       PFind                   None            0.00    0.00    None
 56.5400         1.6263           0.0000          0.0000            27.50         0.81          0.0800            0.0000           4.4000       PFind                   None            0.00    0.00    None
 57.5000         1.6015           0.0000          0.0000            27.50         0.81          0.0600            0.0000           0.0000       PFind                   None            0.00    0.00    None
 59.2600         1.5580           0.0000          0.0000            29.17         0.86          0.1000            0.0000           1.7500       PFind                   None            0.00    0.00    None
 61.3600         1.5096           0.0000          0.0000            60.00         1.76          0.0000            0.0000           4.8000       PFind                   None            0.00    0.00    None
 63.9200         1.4552           0.0000          0.0000            59.17         1.74          0.0400            0.0000           4.7333       PFind                   None            0.00    0.00    None