File: Generating XRD fingerprints/INPUT/Detrital data/G50_pf_RT.txt
Filename:
	C:\Program Files\Thermo Electron\WinXRD\Datafiles\FIEN2\GEO\G50_RT.pk

File Created:
	February 25, 2021 - 09:47 AM

Specimen Id:
	G50_RT

Specimen Name:

Specimen Description:

Comment:
Scan Type: 2Theta Scan
Start Angle: 3 deg.
Stop Angle: 65 deg.
Num Points: 3101
Step Size: 0.02 deg.
Scan Rate: 1.000000
Scan Mode: Continuous
Wavelength: 1.540562
\Kalpha1: 1.540562	\Kalpha2: 1.544390	\Kbeta: 1.392218

Optics:
		Detector:
			 Type: Fixed Slits
		Tube:
			 Type: Fixed Slits

Datas:
Peaks:

Position        Dspace          ESD(P)          Corr.Fact       Intensity       Rel.Int.        FWHM(L)         ESD(L)          Area            Source                  Curve           Strain  CSize   CSize_Source
[deg]           [A]             [deg]           [deg]           [CPS]           [CPS]           [deg]           [deg]           [deg]           [--]                    [--]            [--]    [--]    [--]
  4.8400        18.2426           0.0000          0.0000            55.00         2.02          0.0800            0.0000           3.3000       PFind                   None            0.00    0.00    None
  5.4000        16.3519           0.0000          0.0000            81.67         3.00          0.0400            0.0000           3.2667       PFind                   None            0.00    0.00    None
  6.1400        14.3827           0.0000          0.0000            72.50         2.67          0.1200            0.0000           2.9000       PFind                   None            0.00    0.00    None
  6.5600        13.4628           0.0000          0.0000            46.67         1.72          0.0200            0.0000           0.0000       PFind                   None            0.00    0.00    None
  7.1400        12.3704           0.0000          0.0000            41.67         1.53          0.1200            0.0000           3.3333       PFind                   None            0.00    0.00    None
  7.8400        11.2674           0.0000          0.0000            40.83         1.50          0.0200            0.0000           2.4500       PFind                   None            0.00    0.00    None
  8.8000        10.0403           0.0000          0.0000           180.83         6.65          0.0200            0.0000          14.4667       PFind                   None            0.00    0.00    None
  9.4200         9.3808           0.0000          0.0000            30.83         1.13          0.1200            0.0000           1.8500       PFind                   None            0.00    0.00    None
  9.9400         8.8912           0.0000          0.0000            30.83         1.13          0.1000            0.0000           0.6167       PFind                   None            0.00    0.00    None
 10.8600         8.1400           0.0000          0.0000            31.67         1.16          0.1200            0.0000           3.8000       PFind                   None            0.00    0.00    None
 12.1400         7.2844           0.0000          0.0000           200.00         7.35          0.0000            0.0000          20.0000       PFind                   None            0.00    0.00    None
 13.1000         6.7527           0.0000          0.0000            29.17         1.07          0.1000            0.0000           0.5833       PFind                   None            0.00    0.00    None
 13.5400         6.5342           0.0000          0.0000            40.83         1.50          0.1600            0.0000           0.0000       PFind                   None            0.00    0.00    None
 14.2200         6.2233           0.0000          0.0000            28.33         1.04          0.0800            0.0000           0.5667       PFind                   None            0.00    0.00    None
 14.9400         5.9249           0.0000          0.0000            37.50         1.38          0.0800            0.0000           3.7500       PFind                   None            0.00    0.00    None
 16.6600         5.3169           0.0000          0.0000            27.50         1.01          0.0800            0.0000           1.1000       PFind                   None            0.00    0.00    None
 18.7400         4.7312           0.0000          0.0000            46.67         1.72          0.1600            0.0000           2.8000       PFind                   None            0.00    0.00    None
 20.4400         4.3414           0.0000          0.0000            38.33         1.41          0.0800            0.0000           0.0000       PFind                   None            0.00    0.00    None
 21.4600         4.1373           0.0000          0.0000            28.33         1.04          0.0800            0.0000           0.5667       PFind                   None            0.00    0.00    None
 22.7800         3.9004           0.0000          0.0000            60.83         2.24          0.0200            0.0000           2.4333       PFind                   None            0.00    0.00    None
 23.7400         3.7448           0.0000          0.0000            30.83         1.13          0.1400            0.0000           0.0000       PFind                   None            0.00    0.00    None
 24.5400         3.6245           0.0000          0.0000           179.17         6.59          0.0800            0.0000          25.0833       PFind                   None            0.00    0.00    None
 25.5400         3.4848           0.0000          0.0000            90.00         3.31          0.0200            0.0000          14.4000       PFind                   None            0.00    0.00    None
 27.4600         3.2454           0.0000          0.0000           180.00         6.62          0.0200            0.0000          25.2000       PFind                   None            0.00    0.00    None
 28.6200         3.1164           0.0000          0.0000            35.83         1.32          0.1200            0.0000           4.3000       PFind                   None            0.00    0.00    None
 30.4000         2.9379           0.0000          0.0000            73.33         2.70          0.0200            0.0000           7.3333       PFind                   None            0.00    0.00    None
 31.3200         2.8537           0.0000          0.0000            50.83         1.87          0.1200            0.0000           7.1167       PFind                   None            0.00    0.00    None
 32.3000         2.7693           0.0000          0.0000            32.50         1.19          0.0600            0.0000           0.6500       PFind                   None            0.00    0.00    None
 35.0000         2.5616           0.0000          0.0000            91.67         3.37          0.0200            0.0000          12.8333       PFind                   None            0.00    0.00    None
 36.4800         2.4610           0.0000          0.0000           212.50         7.81          0.0600            0.0000          25.5000       PFind                   None            0.00    0.00    None
 39.3800         2.2862           0.0000          0.0000           178.33         6.56          0.0800            0.0000          14.2667       PFind                   None            0.00    0.00    None
 41.7400         2.1622           0.0000          0.0000            54.17         1.99          0.0800            0.0000           8.6667       PFind                   None            0.00    0.00    None
 43.6800         2.0706           0.0000          0.0000            88.33         3.25          0.1200            0.0000          10.6000       PFind                   None            0.00    0.00    None
 45.4400         1.9944           0.0000          0.0000            58.33         2.14          0.0000            0.0000           9.3333       PFind                   None            0.00    0.00    None
 46.0800         1.9681           0.0000          0.0000            27.50         1.01          0.1600            0.0000           2.2000       PFind                   None            0.00    0.00    None
 48.4200         1.8784           0.0000          0.0000            68.33         2.51          0.0800            0.0000           1.3667       PFind                   None            0.00    0.00    None
 50.0600         1.8206           0.0000          0.0000           330.00        12.13          0.0800            0.0000          26.4000       PFind                   None            0.00    0.00    None
 51.0400         1.7879           0.0000          0.0000            45.00         1.65          0.1200            0.0000           4.5000       PFind                   None            0.00    0.00    None
 54.8200         1.6732           0.0000          0.0000           172.50         6.34          0.0600            0.0000          17.2500       PFind                   None            0.00    0.00    None
 55.9000         1.6434           0.0000          0.0000            26.67         0.98          0.0800            0.0000           4.2667       PFind                   None            0.00    0.00    None
 57.0200         1.6138           0.0000          0.0000            35.00         1.29          0.1600            0.0000           2.8000       PFind                   None            0.00    0.00    None
 58.6600         1.5725           0.0000          0.0000            36.67         1.35          0.1200            0.0000           4.4000       PFind                   None            0.00    0.00    None
 60.0600         1.5392           0.0000          0.0000           208.33         7.66          0.1600            0.0000          16.6667       PFind                   None            0.00    0.00    None
 61.5600         1.5052           0.0000          0.0000            40.00         1.47          0.0800            0.0000           6.4000       PFind                   None            0.00    0.00    None
 62.5200         1.4844           0.0000          0.0000            77.50         2.85          0.0800            0.0000           4.6500       PFind                   None            0.00    0.00    None
 64.1200         1.4512           0.0000          0.0000            41.67         1.53          0.0800            0.0000           3.3333       PFind                   None            0.00    0.00    None