File: Generating XRD fingerprints/INPUT/Detrital data/G51_pf_RT.txt
Filename:
	C:\Program Files\Thermo Electron\WinXRD\Datafiles\FIEN2\GEO\G51_RT.pk

File Created:
	February 25, 2021 - 09:47 AM

Specimen Id:
	G51_RT

Specimen Name:

Specimen Description:

Comment:
Scan Type: 2Theta Scan
Start Angle: 3 deg.
Stop Angle: 65 deg.
Num Points: 3101
Step Size: 0.02 deg.
Scan Rate: 1.000000
Scan Mode: Continuous
Wavelength: 1.540562
\Kalpha1: 1.540562	\Kalpha2: 1.544390	\Kbeta: 1.392218

Optics:
		Detector:
			 Type: Fixed Slits
		Tube:
			 Type: Fixed Slits

Datas:
Peaks:

Position        Dspace          ESD(P)          Corr.Fact       Intensity       Rel.Int.        FWHM(L)         ESD(L)          Area            Source                  Curve           Strain  CSize   CSize_Source
[deg]           [A]             [deg]           [deg]           [CPS]           [CPS]           [deg]           [deg]           [deg]           [--]                    [--]            [--]    [--]    [--]
  4.7600        18.5490           0.0000          0.0000            45.83         1.71          0.1200            0.0000           7.3333       PFind                   None            0.00    0.00    None
  5.5000        16.0548           0.0000          0.0000            48.33         1.80          0.1200            0.0000           0.0000       PFind                   None            0.00    0.00    None
  6.1200        14.4297           0.0000          0.0000           113.33         4.22          0.0000            0.0000          15.8667       PFind                   None            0.00    0.00    None
  7.0800        12.4751           0.0000          0.0000            33.33         1.24          0.0200            0.0000           4.0000       PFind                   None            0.00    0.00    None
  7.9000        11.1820           0.0000          0.0000            29.17         1.09          0.1000            0.0000           1.7500       PFind                   None            0.00    0.00    None
  8.8000        10.0403           0.0000          0.0000           364.17        13.55          0.0600            0.0000          29.1333       PFind                   None            0.00    0.00    None
  9.8800         8.9451           0.0000          0.0000            28.33         1.05          0.0200            0.0000           0.0000       PFind                   None            0.00    0.00    None
 10.8400         8.1549           0.0000          0.0000            32.50         1.21          0.0600            0.0000           3.2500       PFind                   None            0.00    0.00    None
 11.8000         7.4935           0.0000          0.0000            35.83         1.33          0.1200            0.0000           0.7167       PFind                   None            0.00    0.00    None
 12.9000         6.8569           0.0000          0.0000            30.00         1.12          0.1000            0.0000           0.0000       PFind                   None            0.00    0.00    None
 13.5400         6.5342           0.0000          0.0000            36.67         1.36          0.0000            0.0000           2.2000       PFind                   None            0.00    0.00    None
 14.3600         6.1629           0.0000          0.0000            29.17         1.09          0.1600            0.0000           0.5833       PFind                   None            0.00    0.00    None
 15.4600         5.7268           0.0000          0.0000            25.83         0.96          0.0600            0.0000           1.5500       PFind                   None            0.00    0.00    None
 16.8000         5.2729           0.0000          0.0000            24.17         0.90          0.1200            0.0000           1.4500       PFind                   None            0.00    0.00    None
 18.0600         4.9078           0.0000          0.0000            27.50         1.02          0.0400            0.0000           1.1000       PFind                   None            0.00    0.00    None
 19.1200         4.6380           0.0000          0.0000            25.83         0.96          0.1000            0.0000           2.5833       PFind                   None            0.00    0.00    None
 20.1400         4.4054           0.0000          0.0000            24.17         0.90          0.1000            0.0000           0.9667       PFind                   None            0.00    0.00    None
 22.8200         3.8937           0.0000          0.0000            47.50         1.77          0.1000            0.0000           0.9500       PFind                   None            0.00    0.00    None
 24.1800         3.6777           0.0000          0.0000            65.00         2.42          0.0600            0.0000           9.1000       PFind                   None            0.00    0.00    None
 25.4200         3.5010           0.0000          0.0000            86.67         3.23          0.0600            0.0000          13.8667       PFind                   None            0.00    0.00    None
 27.4200         3.2500           0.0000          0.0000           160.83         5.99          0.0400            0.0000          19.3000       PFind                   None            0.00    0.00    None
 29.9800         2.9781           0.0000          0.0000            50.00         1.86          0.0600            0.0000           2.0000       PFind                   None            0.00    0.00    None
 30.7800         2.9025           0.0000          0.0000           116.67         4.34          0.0000            0.0000          18.6667       PFind                   None            0.00    0.00    None
 32.1000         2.7861           0.0000          0.0000            35.83         1.33          0.1600            0.0000           5.7333       PFind                   None            0.00    0.00    None
 34.4200         2.6034           0.0000          0.0000            55.00         2.05          0.0600            0.0000           5.5000       PFind                   None            0.00    0.00    None
 35.9600         2.4954           0.0000          0.0000            35.83         1.33          0.1000            0.0000           2.1500       PFind                   None            0.00    0.00    None
 39.3800         2.2862           0.0000          0.0000           150.00         5.58          0.0000            0.0000           9.0000       PFind                   None            0.00    0.00    None
 42.3600         2.1320           0.0000          0.0000           136.67         5.09          0.0800            0.0000          16.4000       PFind                   None            0.00    0.00    None
 44.4200         2.0378           0.0000          0.0000           222.50         8.28          0.0600            0.0000          35.6000       PFind                   None            0.00    0.00    None
 47.8800         1.8983           0.0000          0.0000            24.17         0.90          0.0400            0.0000           0.0000       PFind                   None            0.00    0.00    None
 49.8400         1.8281           0.0000          0.0000            46.67         1.74          0.0600            0.0000           6.5333       PFind                   None            0.00    0.00    None
 52.0400         1.7559           0.0000          0.0000            35.00         1.30          0.0400            0.0000           3.5000       PFind                   None            0.00    0.00    None
 52.8400         1.7312           0.0000          0.0000            23.33         0.87          0.1600            0.0000           0.4667       PFind                   None            0.00    0.00    None
 54.2600         1.6892           0.0000          0.0000            30.83         1.15          0.1600            0.0000           4.9333       PFind                   None            0.00    0.00    None
 55.7200         1.6483           0.0000          0.0000            32.50         1.21          0.0600            0.0000           2.6000       PFind                   None            0.00    0.00    None
 56.6400         1.6237           0.0000          0.0000            25.83         0.96          0.0800            0.0000           1.5500       PFind                   None            0.00    0.00    None
 60.0200         1.5401           0.0000          0.0000           153.33         5.71          0.0600            0.0000          12.2667       PFind                   None            0.00    0.00    None
 61.3600         1.5096           0.0000          0.0000            40.83         1.52          0.1600            0.0000           4.9000       PFind                   None            0.00    0.00    None
 62.1400         1.4925           0.0000          0.0000            27.50         1.02          0.1600            0.0000           4.4000       PFind                   None            0.00    0.00    None
 64.7200         1.4391           0.0000          0.0000            45.83         1.71          0.0400            0.0000           0.9167       PFind                   None            0.00    0.00    None