File: Generating XRD fingerprints/INPUT/Detrital data/G53_pf_RT.txt
Filename:
	C:\Program Files\Thermo Electron\WinXRD\Datafiles\FIEN2\GEO\G53_RT.pk

File Created:
	February 25, 2021 - 09:48 AM

Specimen Id:
	G53_RT

Specimen Name:

Specimen Description:

Comment:
Scan Type: 2Theta Scan
Start Angle: 3 deg.
Stop Angle: 65 deg.
Num Points: 3101
Step Size: 0.02 deg.
Scan Rate: 1.000000
Scan Mode: Continuous
Wavelength: 1.540562
\Kalpha1: 1.540562	\Kalpha2: 1.544390	\Kbeta: 1.392218

Optics:
		Detector:
			 Type: Fixed Slits
		Tube:
			 Type: Fixed Slits

Datas:
Peaks:

Position        Dspace          ESD(P)          Corr.Fact       Intensity       Rel.Int.        FWHM(L)         ESD(L)          Area            Source                  Curve           Strain  CSize   CSize_Source
[deg]           [A]             [deg]           [deg]           [CPS]           [CPS]           [deg]           [deg]           [deg]           [--]                    [--]            [--]    [--]    [--]
  4.7800        18.4714           0.0000          0.0000            55.00         1.87          0.1600            0.0000           5.5000       PFind                   None            0.00    0.00    None
  5.2000        16.9804           0.0000          0.0000            39.17         1.33          0.1600            0.0000           3.1333       PFind                   None            0.00    0.00    None
  6.1400        14.3827           0.0000          0.0000           161.67         5.50          0.0600            0.0000          19.4000       PFind                   None            0.00    0.00    None
  6.9600        12.6899           0.0000          0.0000            42.50         1.44          0.0200            0.0000           3.4000       PFind                   None            0.00    0.00    None
  7.6000        11.6227           0.0000          0.0000            40.00         1.36          0.0200            0.0000           1.6000       PFind                   None            0.00    0.00    None
  8.7800        10.0631           0.0000          0.0000           779.17        26.49          0.0800            0.0000          62.3333       PFind                   None            0.00    0.00    None
  9.6200         9.1862           0.0000          0.0000            30.00         1.02          0.1000            0.0000           1.8000       PFind                   None            0.00    0.00    None
 10.8000         8.1850           0.0000          0.0000            36.67         1.25          0.0600            0.0000           0.0000       PFind                   None            0.00    0.00    None
 12.1000         7.3084           0.0000          0.0000           765.00        26.01          0.1200            0.0000          61.2000       PFind                   None            0.00    0.00    None
 13.3800         6.6120           0.0000          0.0000            33.33         1.13          0.0600            0.0000           5.3333       PFind                   None            0.00    0.00    None
 14.6200         6.0539           0.0000          0.0000            32.50         1.10          0.1400            0.0000           0.0000       PFind                   None            0.00    0.00    None
 16.9200         5.2358           0.0000          0.0000            28.33         0.96          0.1400            0.0000           0.0000       PFind                   None            0.00    0.00    None
 18.1400         4.8863           0.0000          0.0000            30.83         1.05          0.1000            0.0000           0.0000       PFind                   None            0.00    0.00    None
 19.2800         4.5999           0.0000          0.0000            32.50         1.10          0.1000            0.0000           0.6500       PFind                   None            0.00    0.00    None
 20.7600         4.2752           0.0000          0.0000           614.17        20.88          0.0800            0.0000          49.1333       PFind                   None            0.00    0.00    None
 22.3800         3.9692           0.0000          0.0000            39.17         1.33          0.0400            0.0000           2.3500       PFind                   None            0.00    0.00    None
 23.0200         3.8603           0.0000          0.0000            42.50         1.44          0.0800            0.0000           3.4000       PFind                   None            0.00    0.00    None
 24.2000         3.6747           0.0000          0.0000           113.33         3.85          0.0800            0.0000          11.3333       PFind                   None            0.00    0.00    None
 25.3800         3.5064           0.0000          0.0000           100.00         3.40          0.0600            0.0000          16.0000       PFind                   None            0.00    0.00    None
 26.7800         3.3262           0.0000          0.0000           596.67        20.28          0.0000            0.0000          95.4667       PFind                   None            0.00    0.00    None
 28.5000         3.1293           0.0000          0.0000            70.83         2.41          0.1000            0.0000           9.9167       PFind                   None            0.00    0.00    None
 30.0200         2.9742           0.0000          0.0000           201.67         6.86          0.1400            0.0000           8.0667       PFind                   None            0.00    0.00    None
 31.5000         2.8378           0.0000          0.0000            51.67         1.76          0.1600            0.0000           7.2333       PFind                   None            0.00    0.00    None
 33.8400         2.6467           0.0000          0.0000            33.33         1.13          0.0800            0.0000           0.6667       PFind                   None            0.00    0.00    None
 34.7400         2.5802           0.0000          0.0000            55.00         1.87          0.0000            0.0000           2.2000       PFind                   None            0.00    0.00    None
 35.4400         2.5308           0.0000          0.0000           132.50         4.50          0.0000            0.0000          21.2000       PFind                   None            0.00    0.00    None
 37.3200         2.4075           0.0000          0.0000            32.50         1.10          0.0800            0.0000           5.2000       PFind                   None            0.00    0.00    None
 39.3600         2.2873           0.0000          0.0000           210.00         7.14          0.0400            0.0000          12.6000       PFind                   None            0.00    0.00    None
 41.2000         2.1893           0.0000          0.0000            27.50         0.93          0.0600            0.0000           2.2000       PFind                   None            0.00    0.00    None
 42.3400         2.1329           0.0000          0.0000           226.67         7.71          0.0200            0.0000          13.6000       PFind                   None            0.00    0.00    None
 44.9200         2.0162           0.0000          0.0000            42.50         1.44          0.1400            0.0000           1.7000       PFind                   None            0.00    0.00    None
 47.8600         1.8990           0.0000          0.0000            40.83         1.39          0.1200            0.0000           0.8167       PFind                   None            0.00    0.00    None
 49.8400         1.8281           0.0000          0.0000            62.50         2.12          0.1000            0.0000           8.7500       PFind                   None            0.00    0.00    None
 50.6000         1.8024           0.0000          0.0000            75.83         2.58          0.0600            0.0000          12.1333       PFind                   None            0.00    0.00    None
 52.4000         1.7447           0.0000          0.0000            32.50         1.10          0.0200            0.0000           2.6000       PFind                   None            0.00    0.00    None
 54.8000         1.6738           0.0000          0.0000           155.00         5.27          0.0200            0.0000           9.3000       PFind                   None            0.00    0.00    None
 56.0000         1.6407           0.0000          0.0000            33.33         1.13          0.1600            0.0000           2.0000       PFind                   None            0.00    0.00    None
 60.0400         1.5396           0.0000          0.0000           193.33         6.57          0.0400            0.0000          19.3333       PFind                   None            0.00    0.00    None
 63.3800         1.4663           0.0000          0.0000            28.33         0.96          0.1000            0.0000           1.7000       PFind                   None            0.00    0.00    None
 64.1200         1.4512           0.0000          0.0000            52.50         1.78          0.0200            0.0000           5.2500       PFind                   None            0.00    0.00    None