File: Generating XRD fingerprints/INPUT/Detrital data/G56_pf_RT.txt
Filename:
	C:\Program Files\Thermo Electron\WinXRD\Datafiles\FIEN2\GEO\G56_RT.pk

File Created:
	February 25, 2021 - 09:50 AM

Specimen Id:
	G56_RT

Specimen Name:

Specimen Description:

Comment:
Scan Type: 2Theta Scan
Start Angle: 3 deg.
Stop Angle: 65 deg.
Num Points: 3101
Step Size: 0.02 deg.
Scan Rate: 1.000000
Scan Mode: Continuous
Wavelength: 1.540562
\Kalpha1: 1.540562	\Kalpha2: 1.544390	\Kbeta: 1.392218

Optics:
		Detector:
			 Type: Fixed Slits
		Tube:
			 Type: Fixed Slits

Datas:
Peaks:

Position        Dspace          ESD(P)          Corr.Fact       Intensity       Rel.Int.        FWHM(L)         ESD(L)          Area            Source                  Curve           Strain  CSize   CSize_Source
[deg]           [A]             [deg]           [deg]           [CPS]           [CPS]           [deg]           [deg]           [deg]           [--]                    [--]            [--]    [--]    [--]
  4.6800        18.8659           0.0000          0.0000            53.33         1.00          0.0400            0.0000           1.0667       PFind                   None            0.00    0.00    None
  5.2200        16.9154           0.0000          0.0000            57.50         1.08          0.1000            0.0000           2.3000       PFind                   None            0.00    0.00    None
  5.7600        15.3307           0.0000          0.0000            39.17         0.74          0.0800            0.0000           1.5667       PFind                   None            0.00    0.00    None
  6.6000        13.3813           0.0000          0.0000            50.00         0.94          0.1600            0.0000           3.0000       PFind                   None            0.00    0.00    None
  7.2000        12.2675           0.0000          0.0000            39.17         0.74          0.0400            0.0000           0.7833       PFind                   None            0.00    0.00    None
  8.0400        10.9876           0.0000          0.0000            32.50         0.61          0.0600            0.0000           0.6500       PFind                   None            0.00    0.00    None
  9.4200         9.3808           0.0000          0.0000            70.83         1.33          0.0200            0.0000           5.6667       PFind                   None            0.00    0.00    None
 10.3200         8.5646           0.0000          0.0000            44.17         0.83          0.1600            0.0000           1.7667       PFind                   None            0.00    0.00    None
 11.0400         8.0076           0.0000          0.0000            33.33         0.63          0.1000            0.0000           2.6667       PFind                   None            0.00    0.00    None
 12.1800         7.2606           0.0000          0.0000           175.83         3.31          0.1000            0.0000          24.6167       PFind                   None            0.00    0.00    None
 13.1400         6.7322           0.0000          0.0000            25.00         0.47          0.1600            0.0000           0.0000       PFind                   None            0.00    0.00    None
 13.6400         6.4865           0.0000          0.0000            40.00         0.75          0.1600            0.0000           0.8000       PFind                   None            0.00    0.00    None
 14.9200         5.9328           0.0000          0.0000            30.00         0.56          0.0800            0.0000           3.6000       PFind                   None            0.00    0.00    None
 17.8000         4.9789           0.0000          0.0000           289.17         5.44          0.0000            0.0000          28.9167       PFind                   None            0.00    0.00    None
 19.6800         4.5073           0.0000          0.0000            34.17         0.64          0.0600            0.0000           0.6833       PFind                   None            0.00    0.00    None
 22.0200         4.0333           0.0000          0.0000           188.33         3.54          0.0200            0.0000          18.8333       PFind                   None            0.00    0.00    None
 23.5400         3.7762           0.0000          0.0000           171.67         3.23          0.0200            0.0000          13.7333       PFind                   None            0.00    0.00    None
 24.6200         3.6129           0.0000          0.0000           221.67         4.17          0.0600            0.0000          22.1667       PFind                   None            0.00    0.00    None
 26.6400         3.3434           0.0000          0.0000          5317.50       100.00          0.0200            0.0000         531.7500       PFind                   None            0.00    0.00    None
 27.8800         3.1974           0.0000          0.0000           586.67        11.03          0.0600            0.0000          82.1333       PFind                   None            0.00    0.00    None
 29.8800         2.9878           0.0000          0.0000            84.17         1.58          0.0000            0.0000          11.7833       PFind                   None            0.00    0.00    None
 31.2400         2.8608           0.0000          0.0000           108.33         2.04          0.0000            0.0000          15.1667       PFind                   None            0.00    0.00    None
 32.9000         2.7201           0.0000          0.0000            33.33         0.63          0.0000            0.0000           0.0000       PFind                   None            0.00    0.00    None
 34.5200         2.5961           0.0000          0.0000            63.33         1.19          0.1000            0.0000           7.6000       PFind                   None            0.00    0.00    None
 36.1200         2.4847           0.0000          0.0000            66.67         1.25          0.1200            0.0000           8.0000       PFind                   None            0.00    0.00    None
 37.3600         2.4050           0.0000          0.0000            50.83         0.96          0.1000            0.0000           4.0667       PFind                   None            0.00    0.00    None
 39.4400         2.2828           0.0000          0.0000           165.83         3.12          0.1000            0.0000          16.5833       PFind                   None            0.00    0.00    None
 41.7400         2.1622           0.0000          0.0000            87.50         1.65          0.1000            0.0000           5.2500       PFind                   None            0.00    0.00    None
 43.9600         2.0580           0.0000          0.0000            37.50         0.71          0.0200            0.0000           2.2500       PFind                   None            0.00    0.00    None
 46.6000         1.9474           0.0000          0.0000            87.50         1.65          0.1400            0.0000           3.5000       PFind                   None            0.00    0.00    None
 49.1600         1.8518           0.0000          0.0000            28.33         0.53          0.1600            0.0000           2.8333       PFind                   None            0.00    0.00    None
 50.7200         1.7984           0.0000          0.0000            67.50         1.27          0.0400            0.0000           8.1000       PFind                   None            0.00    0.00    None
 52.3200         1.7471           0.0000          0.0000            31.67         0.60          0.1600            0.0000           3.1667       PFind                   None            0.00    0.00    None
 53.9000         1.6996           0.0000          0.0000            32.50         0.61          0.0600            0.0000           1.3000       PFind                   None            0.00    0.00    None
 55.0000         1.6682           0.0000          0.0000           184.17         3.46          0.0200            0.0000          11.0500       PFind                   None            0.00    0.00    None
 56.1800         1.6359           0.0000          0.0000            25.83         0.49          0.0600            0.0000           0.0000       PFind                   None            0.00    0.00    None
 58.6200         1.5735           0.0000          0.0000            23.33         0.44          0.0400            0.0000           0.4667       PFind                   None            0.00    0.00    None
 59.9200         1.5424           0.0000          0.0000           290.83         5.47          0.1400            0.0000          29.0833       PFind                   None            0.00    0.00    None
 61.3200         1.5105           0.0000          0.0000            32.50         0.61          0.1000            0.0000           5.2000       PFind                   None            0.00    0.00    None
 61.8800         1.4982           0.0000          0.0000            31.67         0.60          0.1600            0.0000           5.0667       PFind                   None            0.00    0.00    None
 63.0400         1.4734           0.0000          0.0000            29.17         0.55          0.0600            0.0000           0.0000       PFind                   None            0.00    0.00    None
 64.0200         1.4532           0.0000          0.0000            55.83         1.05          0.0400            0.0000           4.4667       PFind                   None            0.00    0.00    None