File: Generating XRD fingerprints/INPUT/Detrital data/G57_pf_RT.txt
Filename:
	C:\Program Files\Thermo Electron\WinXRD\Datafiles\FIEN2\GEO\G57_RT.pk

File Created:
	February 25, 2021 - 09:50 AM

Specimen Id:
	G57_RT

Specimen Name:

Specimen Description:

Comment:
Scan Type: 2Theta Scan
Start Angle: 3 deg.
Stop Angle: 65 deg.
Num Points: 3101
Step Size: 0.02 deg.
Scan Rate: 1.000000
Scan Mode: Continuous
Wavelength: 1.540562
\Kalpha1: 1.540562	\Kalpha2: 1.544390	\Kbeta: 1.392218

Optics:
		Detector:
			 Type: Fixed Slits
		Tube:
			 Type: Fixed Slits

Datas:
Peaks:

Position        Dspace          ESD(P)          Corr.Fact       Intensity       Rel.Int.        FWHM(L)         ESD(L)          Area            Source                  Curve           Strain  CSize   CSize_Source
[deg]           [A]             [deg]           [deg]           [CPS]           [CPS]           [deg]           [deg]           [deg]           [--]                    [--]            [--]    [--]    [--]
  4.6400        19.0284           0.0000          0.0000            60.83         3.03          0.0800            0.0000           6.0833       PFind                   None            0.00    0.00    None
  5.5800        15.8248           0.0000          0.0000            65.83         3.28          0.1000            0.0000           3.9500       PFind                   None            0.00    0.00    None
  6.3200        13.9735           0.0000          0.0000            52.50         2.62          0.1200            0.0000           6.3000       PFind                   None            0.00    0.00    None
  7.1400        12.3704           0.0000          0.0000            38.33         1.91          0.0800            0.0000           3.0667       PFind                   None            0.00    0.00    None
  7.8600        11.2388           0.0000          0.0000            30.00         1.50          0.1200            0.0000           1.8000       PFind                   None            0.00    0.00    None
  8.7800        10.0631           0.0000          0.0000           336.67        16.78          0.0600            0.0000          33.6667       PFind                   None            0.00    0.00    None
  9.9400         8.8912           0.0000          0.0000            30.83         1.54          0.1600            0.0000           1.2333       PFind                   None            0.00    0.00    None
 10.7200         8.2459           0.0000          0.0000            35.00         1.74          0.1000            0.0000           1.4000       PFind                   None            0.00    0.00    None
 11.7000         7.5574           0.0000          0.0000            27.50         1.37          0.0000            0.0000           2.7500       PFind                   None            0.00    0.00    None
 12.6800         6.9754           0.0000          0.0000            38.33         1.91          0.1600            0.0000           0.7667       PFind                   None            0.00    0.00    None
 13.4600         6.5729           0.0000          0.0000            35.83         1.79          0.0400            0.0000           0.0000       PFind                   None            0.00    0.00    None
 14.2200         6.2233           0.0000          0.0000            32.50         1.62          0.0200            0.0000           0.0000       PFind                   None            0.00    0.00    None
 16.1200         5.4938           0.0000          0.0000            29.17         1.45          0.1000            0.0000           0.0000       PFind                   None            0.00    0.00    None
 18.4800         4.7972           0.0000          0.0000            47.50         2.37          0.1400            0.0000           5.7000       PFind                   None            0.00    0.00    None
 19.7600         4.4892           0.0000          0.0000            45.00         2.24          0.0600            0.0000           5.4000       PFind                   None            0.00    0.00    None
 21.9800         4.0405           0.0000          0.0000           110.00         5.48          0.0200            0.0000          11.0000       PFind                   None            0.00    0.00    None
 23.4200         3.7953           0.0000          0.0000           130.00         6.48          0.0800            0.0000          13.0000       PFind                   None            0.00    0.00    None
 24.8400         3.5814           0.0000          0.0000            60.00         2.99          0.1000            0.0000           6.0000       PFind                   None            0.00    0.00    None
 26.5600         3.3533           0.0000          0.0000          2005.83       100.00          0.1000            0.0000         200.5833       PFind                   None            0.00    0.00    None
 27.8600         3.1997           0.0000          0.0000           485.83        24.22          0.0800            0.0000          48.5833       PFind                   None            0.00    0.00    None
 29.0000         3.0764           0.0000          0.0000            66.67         3.32          0.1200            0.0000           2.6667       PFind                   None            0.00    0.00    None
 30.8200         2.8988           0.0000          0.0000           104.17         5.19          0.1200            0.0000           4.1667       PFind                   None            0.00    0.00    None
 31.7800         2.8134           0.0000          0.0000            36.67         1.83          0.1200            0.0000           3.6667       PFind                   None            0.00    0.00    None
 33.4000         2.6805           0.0000          0.0000            25.00         1.25          0.1000            0.0000           0.5000       PFind                   None            0.00    0.00    None
 35.4200         2.5322           0.0000          0.0000           112.50         5.61          0.0400            0.0000          18.0000       PFind                   None            0.00    0.00    None
 36.9000         2.4339           0.0000          0.0000            29.17         1.45          0.0600            0.0000           1.1667       PFind                   None            0.00    0.00    None
 38.1400         2.3576           0.0000          0.0000            25.00         1.25          0.0400            0.0000           0.0000       PFind                   None            0.00    0.00    None
 41.0600         2.1964           0.0000          0.0000           142.50         7.10          0.0400            0.0000           8.5500       PFind                   None            0.00    0.00    None
 43.2000         2.0924           0.0000          0.0000            30.83         1.54          0.1000            0.0000           1.8500       PFind                   None            0.00    0.00    None
 44.4200         2.0378           0.0000          0.0000           204.17        10.18          0.0800            0.0000          32.6667       PFind                   None            0.00    0.00    None
 45.7000         1.9836           0.0000          0.0000           152.50         7.60          0.0600            0.0000          18.3000       PFind                   None            0.00    0.00    None
 49.6400         1.8350           0.0000          0.0000            32.50         1.62          0.1400            0.0000           2.6000       PFind                   None            0.00    0.00    None
 51.0400         1.7879           0.0000          0.0000            52.50         2.62          0.1000            0.0000           4.2000       PFind                   None            0.00    0.00    None
 54.8000         1.6738           0.0000          0.0000           117.50         5.86          0.0400            0.0000          11.7500       PFind                   None            0.00    0.00    None
 55.7800         1.6467           0.0000          0.0000            44.17         2.20          0.1000            0.0000           7.0667       PFind                   None            0.00    0.00    None
 57.6800         1.5969           0.0000          0.0000            25.00         1.25          0.1600            0.0000           2.0000       PFind                   None            0.00    0.00    None
 60.0400         1.5396           0.0000          0.0000           125.00         6.23          0.0400            0.0000          12.5000       PFind                   None            0.00    0.00    None
 61.6600         1.5030           0.0000          0.0000            48.33         2.41          0.1200            0.0000           7.7333       PFind                   None            0.00    0.00    None
 64.1400         1.4507           0.0000          0.0000            42.50         2.12          0.1200            0.0000           5.1000       PFind                   None            0.00    0.00    None