File: Generating XRD fingerprints/INPUT/Detrital data/G59_pf_RT.txt
Filename:
	C:\Program Files\Thermo Electron\WinXRD\Datafiles\FIEN2\GEO\G59_RT.pk

File Created:
	February 25, 2021 - 09:51 AM

Specimen Id:
	G59_RT

Specimen Name:

Specimen Description:

Comment:
Scan Type: 2Theta Scan
Start Angle: 3 deg.
Stop Angle: 65 deg.
Num Points: 3101
Step Size: 0.02 deg.
Scan Rate: 1.000000
Scan Mode: Continuous
Wavelength: 1.540562
\Kalpha1: 1.540562	\Kalpha2: 1.544390	\Kbeta: 1.392218

Optics:
		Detector:
			 Type: Fixed Slits
		Tube:
			 Type: Fixed Slits

Datas:
Peaks:

Position        Dspace          ESD(P)          Corr.Fact       Intensity       Rel.Int.        FWHM(L)         ESD(L)          Area            Source                  Curve           Strain  CSize   CSize_Source
[deg]           [A]             [deg]           [deg]           [CPS]           [CPS]           [deg]           [deg]           [deg]           [--]                    [--]            [--]    [--]    [--]
  4.8600        18.1675           0.0000          0.0000            61.67         4.36          0.0200            0.0000           6.1667       PFind                   None            0.00    0.00    None
  5.5600        15.8817           0.0000          0.0000            48.33         3.42          0.1000            0.0000           1.9333       PFind                   None            0.00    0.00    None
  6.3600        13.8857           0.0000          0.0000            39.17         2.77          0.0800            0.0000           5.4833       PFind                   None            0.00    0.00    None
  7.0600        12.5104           0.0000          0.0000            48.33         3.42          0.0600            0.0000           4.8333       PFind                   None            0.00    0.00    None
  7.8600        11.2388           0.0000          0.0000            40.83         2.89          0.1400            0.0000           3.2667       PFind                   None            0.00    0.00    None
  8.8000        10.0403           0.0000          0.0000           230.00        16.26          0.1200            0.0000          13.8000       PFind                   None            0.00    0.00    None
  9.6800         9.1294           0.0000          0.0000            35.83         2.53          0.0800            0.0000           2.8667       PFind                   None            0.00    0.00    None
 10.4800         8.4342           0.0000          0.0000           170.00        12.02          0.1000            0.0000          10.2000       PFind                   None            0.00    0.00    None
 11.3000         7.8240           0.0000          0.0000            25.83         1.83          0.0800            0.0000           1.0333       PFind                   None            0.00    0.00    None
 12.4000         7.1323           0.0000          0.0000           116.67         8.25          0.0800            0.0000          11.6667       PFind                   None            0.00    0.00    None
 13.8000         6.4117           0.0000          0.0000            40.83         2.89          0.1200            0.0000           3.2667       PFind                   None            0.00    0.00    None
 14.8600         5.9566           0.0000          0.0000            39.17         2.77          0.0800            0.0000           0.7833       PFind                   None            0.00    0.00    None
 15.7400         5.6255           0.0000          0.0000            31.67         2.24          0.0400            0.0000           1.2667       PFind                   None            0.00    0.00    None
 16.8000         5.2729           0.0000          0.0000            27.50         1.94          0.0400            0.0000           0.0000       PFind                   None            0.00    0.00    None
 18.4800         4.7972           0.0000          0.0000            28.33         2.00          0.0400            0.0000           1.7000       PFind                   None            0.00    0.00    None
 19.5200         4.5439           0.0000          0.0000            30.83         2.18          0.1000            0.0000           1.2333       PFind                   None            0.00    0.00    None
 21.0800         4.2110           0.0000          0.0000            30.00         2.12          0.1600            0.0000           4.2000       PFind                   None            0.00    0.00    None
 22.9400         3.8736           0.0000          0.0000            36.67         2.59          0.1400            0.0000           4.4000       PFind                   None            0.00    0.00    None
 24.7200         3.5985           0.0000          0.0000            37.50         2.65          0.0400            0.0000           0.0000       PFind                   None            0.00    0.00    None
 25.5800         3.4795           0.0000          0.0000            59.17         4.18          0.0400            0.0000           8.2833       PFind                   None            0.00    0.00    None
 27.1800         3.2782           0.0000          0.0000            36.67         2.59          0.1600            0.0000           0.0000       PFind                   None            0.00    0.00    None
 28.5000         3.1293           0.0000          0.0000            70.00         4.95          0.0400            0.0000           8.4000       PFind                   None            0.00    0.00    None
 30.4200         2.9360           0.0000          0.0000            55.00         3.89          0.0400            0.0000           6.6000       PFind                   None            0.00    0.00    None
 32.0400         2.7911           0.0000          0.0000            45.00         3.18          0.1200            0.0000           4.5000       PFind                   None            0.00    0.00    None
 34.3600         2.6078           0.0000          0.0000            44.17         3.12          0.0400            0.0000           0.8833       PFind                   None            0.00    0.00    None
 35.5000         2.5266           0.0000          0.0000            94.17         6.66          0.0800            0.0000          13.1833       PFind                   None            0.00    0.00    None
 37.0400         2.4250           0.0000          0.0000            25.83         1.83          0.0400            0.0000           1.5500       PFind                   None            0.00    0.00    None
 37.7800         2.3792           0.0000          0.0000            25.00         1.77          0.1200            0.0000           1.0000       PFind                   None            0.00    0.00    None
 39.7800         2.2641           0.0000          0.0000            30.00         2.12          0.1000            0.0000           1.2000       PFind                   None            0.00    0.00    None
 42.3600         2.1320           0.0000          0.0000           116.67         8.25          0.0800            0.0000           9.3333       PFind                   None            0.00    0.00    None
 44.8600         2.0188           0.0000          0.0000            40.00         2.83          0.1400            0.0000           3.2000       PFind                   None            0.00    0.00    None
 45.7000         1.9836           0.0000          0.0000           105.83         7.48          0.0800            0.0000          10.5833       PFind                   None            0.00    0.00    None
 48.3400         1.8813           0.0000          0.0000            24.17         1.71          0.0000            0.0000           1.4500       PFind                   None            0.00    0.00    None
 50.6400         1.8011           0.0000          0.0000            59.17         4.18          0.0200            0.0000           8.2833       PFind                   None            0.00    0.00    None
 52.0600         1.7553           0.0000          0.0000           110.83         7.84          0.0800            0.0000           4.4333       PFind                   None            0.00    0.00    None
 54.8800         1.6715           0.0000          0.0000            45.00         3.18          0.0400            0.0000           2.7000       PFind                   None            0.00    0.00    None
 57.0000         1.6143           0.0000          0.0000            47.50         3.36          0.0400            0.0000           3.8000       PFind                   None            0.00    0.00    None
 59.8600         1.5438           0.0000          0.0000           188.33        13.32          0.0200            0.0000          15.0667       PFind                   None            0.00    0.00    None
 61.4800         1.5070           0.0000          0.0000            46.67         3.30          0.1000            0.0000           7.4667       PFind                   None            0.00    0.00    None
 63.9600         1.4544           0.0000          0.0000            60.00         4.24          0.0800            0.0000           6.0000       PFind                   None            0.00    0.00    None
 64.1000         1.4516           0.0000          0.0000            29.17         2.06          0.1000            0.0000           4.0833       PFind                   None            0.00    0.00    None