File: Generating XRD fingerprints/INPUT/Detrital data/G60_pf_RT.txt
Filename:
	C:\Program Files\Thermo Electron\WinXRD\Datafiles\FIEN2\GEO\G60_RT.pk

File Created:
	February 25, 2021 - 09:52 AM

Specimen Id:
	G60_RT

Specimen Name:

Specimen Description:

Comment:
Scan Type: 2Theta Scan
Start Angle: 3 deg.
Stop Angle: 65 deg.
Num Points: 3101
Step Size: 0.02 deg.
Scan Rate: 1.000000
Scan Mode: Continuous
Wavelength: 1.540562
\Kalpha1: 1.540562	\Kalpha2: 1.544390	\Kbeta: 1.392218

Optics:
		Detector:
			 Type: Fixed Slits
		Tube:
			 Type: Fixed Slits

Datas:
Peaks:

Position        Dspace          ESD(P)          Corr.Fact       Intensity       Rel.Int.        FWHM(L)         ESD(L)          Area            Source                  Curve           Strain  CSize   CSize_Source
[deg]           [A]             [deg]           [deg]           [CPS]           [CPS]           [deg]           [deg]           [deg]           [--]                    [--]            [--]    [--]    [--]
  4.7000        18.7856           0.0000          0.0000            60.00         2.16          0.1000            0.0000           3.6000       PFind                   None            0.00    0.00    None
  5.2800        16.7233           0.0000          0.0000            43.33         1.56          0.0000            0.0000           5.2000       PFind                   None            0.00    0.00    None
  5.8400        15.1209           0.0000          0.0000            47.50         1.71          0.0600            0.0000           3.8000       PFind                   None            0.00    0.00    None
  6.5800        13.4219           0.0000          0.0000            57.50         2.07          0.1600            0.0000           3.4500       PFind                   None            0.00    0.00    None
  7.2800        12.1328           0.0000          0.0000            51.67         1.86          0.1000            0.0000           3.1000       PFind                   None            0.00    0.00    None
  7.9800        11.0701           0.0000          0.0000            37.50         1.35          0.0800            0.0000           2.2500       PFind                   None            0.00    0.00    None
  8.7800        10.0631           0.0000          0.0000           358.33        12.92          0.1200            0.0000          35.8333       PFind                   None            0.00    0.00    None
  9.5400         9.2631           0.0000          0.0000            44.17         1.59          0.1000            0.0000           3.5333       PFind                   None            0.00    0.00    None
 10.4400         8.4665           0.0000          0.0000            64.17         2.31          0.0800            0.0000           3.8500       PFind                   None            0.00    0.00    None
 11.4200         7.7420           0.0000          0.0000            31.67         1.14          0.1600            0.0000           0.6333       PFind                   None            0.00    0.00    None
 12.4200         7.1208           0.0000          0.0000           225.83         8.14          0.0800            0.0000          22.5833       PFind                   None            0.00    0.00    None
 13.5600         6.5246           0.0000          0.0000            41.67         1.50          0.1200            0.0000           1.6667       PFind                   None            0.00    0.00    None
 16.4400         5.3875           0.0000          0.0000            27.50         0.99          0.0800            0.0000           0.0000       PFind                   None            0.00    0.00    None
 17.9200         4.9458           0.0000          0.0000            31.67         1.14          0.0800            0.0000           0.0000       PFind                   None            0.00    0.00    None
 19.1000         4.6428           0.0000          0.0000            28.33         1.02          0.0000            0.0000           2.8333       PFind                   None            0.00    0.00    None
 20.2600         4.3795           0.0000          0.0000            32.50         1.17          0.0400            0.0000           0.6500       PFind                   None            0.00    0.00    None
 21.9800         4.0405           0.0000          0.0000           122.50         4.42          0.0800            0.0000          12.2500       PFind                   None            0.00    0.00    None
 23.4400         3.7921           0.0000          0.0000           105.00         3.79          0.0400            0.0000          12.6000       PFind                   None            0.00    0.00    None
 24.5000         3.6304           0.0000          0.0000           118.33         4.27          0.0800            0.0000          14.2000       PFind                   None            0.00    0.00    None
 26.5400         3.3558           0.0000          0.0000          2773.33       100.00          0.0600            0.0000         277.3333       PFind                   None            0.00    0.00    None
 27.8400         3.2019           0.0000          0.0000           364.17        13.13          0.0400            0.0000          50.9833       PFind                   None            0.00    0.00    None
 28.5200         3.1271           0.0000          0.0000            63.33         2.28          0.1000            0.0000           2.5333       PFind                   None            0.00    0.00    None
 30.1000         2.9665           0.0000          0.0000            47.50         1.71          0.1000            0.0000           2.8500       PFind                   None            0.00    0.00    None
 31.1600         2.8679           0.0000          0.0000            85.00         3.06          0.0400            0.0000          11.9000       PFind                   None            0.00    0.00    None
 32.0000         2.7945           0.0000          0.0000            58.33         2.10          0.1200            0.0000           5.8333       PFind                   None            0.00    0.00    None
 33.0000         2.7121           0.0000          0.0000            41.67         1.50          0.0800            0.0000           1.6667       PFind                   None            0.00    0.00    None
 34.5000         2.5975           0.0000          0.0000            72.50         2.61          0.1000            0.0000          10.1500       PFind                   None            0.00    0.00    None
 35.4000         2.5335           0.0000          0.0000           125.00         4.51          0.0600            0.0000          12.5000       PFind                   None            0.00    0.00    None
 36.8400         2.4378           0.0000          0.0000            35.83         1.29          0.0400            0.0000           0.0000       PFind                   None            0.00    0.00    None
 37.6600         2.3865           0.0000          0.0000            73.33         2.64          0.0800            0.0000           2.9333       PFind                   None            0.00    0.00    None
 41.7400         2.1622           0.0000          0.0000            54.17         1.95          0.0400            0.0000           6.5000       PFind                   None            0.00    0.00    None
 43.6400         2.0724           0.0000          0.0000            61.67         2.22          0.1000            0.0000           9.8667       PFind                   None            0.00    0.00    None
 45.0200         2.0120           0.0000          0.0000            49.17         1.77          0.1400            0.0000           7.8667       PFind                   None            0.00    0.00    None
 45.7200         1.9828           0.0000          0.0000           200.00         7.21          0.0800            0.0000          16.0000       PFind                   None            0.00    0.00    None
 48.0400         1.8923           0.0000          0.0000            43.33         1.56          0.1200            0.0000           5.2000       PFind                   None            0.00    0.00    None
 50.5200         1.8051           0.0000          0.0000            60.00         2.16          0.0800            0.0000           8.4000       PFind                   None            0.00    0.00    None
 51.1600         1.7840           0.0000          0.0000            38.33         1.38          0.1600            0.0000           4.6000       PFind                   None            0.00    0.00    None
 53.1400         1.7221           0.0000          0.0000            28.33         1.02          0.0800            0.0000           2.8333       PFind                   None            0.00    0.00    None
 55.2200         1.6621           0.0000          0.0000            48.33         1.74          0.1000            0.0000           3.8667       PFind                   None            0.00    0.00    None
 56.8000         1.6195           0.0000          0.0000            42.50         1.53          0.1400            0.0000           1.7000       PFind                   None            0.00    0.00    None
 58.9200         1.5662           0.0000          0.0000            70.83         2.55          0.1000            0.0000           2.8333       PFind                   None            0.00    0.00    None
 59.8800         1.5434           0.0000          0.0000           348.33        12.56          0.0600            0.0000          27.8667       PFind                   None            0.00    0.00    None
 61.2200         1.5128           0.0000          0.0000            31.67         1.14          0.0600            0.0000           0.0000       PFind                   None            0.00    0.00    None
 61.8000         1.4999           0.0000          0.0000            32.50         1.17          0.0000            0.0000           1.3000       PFind                   None            0.00    0.00    None
 63.9400         1.4548           0.0000          0.0000            80.00         2.88          0.0000            0.0000           6.4000       PFind                   None            0.00    0.00    None
 64.1200         1.4512           0.0000          0.0000            51.67         1.86          0.0600            0.0000           7.2333       PFind                   None            0.00    0.00    None