File: Generating XRD fingerprints/INPUT/Detrital data/G61_pf_RT.txt
Filename:
	C:\Program Files\Thermo Electron\WinXRD\Datafiles\FIEN2\GEO\G61_RT.pk

File Created:
	February 25, 2021 - 09:52 AM

Specimen Id:
	G61_RT

Specimen Name:

Specimen Description:

Comment:
Scan Type: 2Theta Scan
Start Angle: 3 deg.
Stop Angle: 65 deg.
Num Points: 3101
Step Size: 0.02 deg.
Scan Rate: 1.000000
Scan Mode: Continuous
Wavelength: 1.540562
\Kalpha1: 1.540562	\Kalpha2: 1.544390	\Kbeta: 1.392218

Optics:
		Detector:
			 Type: Fixed Slits
		Tube:
			 Type: Fixed Slits

Datas:
Peaks:

Position        Dspace          ESD(P)          Corr.Fact       Intensity       Rel.Int.        FWHM(L)         ESD(L)          Area            Source                  Curve           Strain  CSize   CSize_Source
[deg]           [A]             [deg]           [deg]           [CPS]           [CPS]           [deg]           [deg]           [deg]           [--]                    [--]            [--]    [--]    [--]
  4.7400        18.6272           0.0000          0.0000            51.67         3.05          0.1400            0.0000           4.1333       PFind                   None            0.00    0.00    None
  5.1600        17.1119           0.0000          0.0000            50.83         3.00          0.1600            0.0000           4.0667       PFind                   None            0.00    0.00    None
  5.6000        15.7684           0.0000          0.0000            47.50         2.80          0.1600            0.0000           1.9000       PFind                   None            0.00    0.00    None
  6.3000        14.0178           0.0000          0.0000            53.33         3.14          0.0400            0.0000           8.5333       PFind                   None            0.00    0.00    None
  6.8200        12.9501           0.0000          0.0000            50.83         3.00          0.1200            0.0000           5.0833       PFind                   None            0.00    0.00    None
  7.2000        12.2675           0.0000          0.0000            50.00         2.95          0.1600            0.0000           1.0000       PFind                   None            0.00    0.00    None
  7.7200        11.4423           0.0000          0.0000            39.17         2.31          0.0800            0.0000           0.7833       PFind                   None            0.00    0.00    None
  8.2800        10.6696           0.0000          0.0000            36.67         2.16          0.0600            0.0000           2.9333       PFind                   None            0.00    0.00    None
  9.1400         9.6675           0.0000          0.0000            47.50         2.80          0.1200            0.0000           3.8000       PFind                   None            0.00    0.00    None
  9.6600         9.1483           0.0000          0.0000            33.33         1.97          0.0000            0.0000           1.3333       PFind                   None            0.00    0.00    None
 10.4800         8.4342           0.0000          0.0000           275.00        16.22          0.0800            0.0000          11.0000       PFind                   None            0.00    0.00    None
 11.6600         7.5832           0.0000          0.0000            32.50         1.92          0.1600            0.0000           0.6500       PFind                   None            0.00    0.00    None
 12.6800         6.9754           0.0000          0.0000            35.83         2.11          0.1600            0.0000           3.5833       PFind                   None            0.00    0.00    None
 13.5200         6.5438           0.0000          0.0000            40.00         2.36          0.0600            0.0000           1.6000       PFind                   None            0.00    0.00    None
 13.9600         6.3386           0.0000          0.0000            33.33         1.97          0.1600            0.0000           2.0000       PFind                   None            0.00    0.00    None
 17.2200         5.1452           0.0000          0.0000            41.67         2.46          0.0800            0.0000           4.1667       PFind                   None            0.00    0.00    None
 18.6800         4.7462           0.0000          0.0000            64.17         3.78          0.0400            0.0000           7.7000       PFind                   None            0.00    0.00    None
 20.7600         4.2752           0.0000          0.0000           445.83        26.29          0.0400            0.0000          26.7500       PFind                   None            0.00    0.00    None
 21.9600         4.0442           0.0000          0.0000            95.83         5.65          0.1600            0.0000          13.4167       PFind                   None            0.00    0.00    None
 23.4800         3.7857           0.0000          0.0000            73.33         4.32          0.1200            0.0000           8.8000       PFind                   None            0.00    0.00    None
 24.7800         3.5900           0.0000          0.0000            81.67         4.82          0.0400            0.0000          11.4333       PFind                   None            0.00    0.00    None
 26.1000         3.4113           0.0000          0.0000            40.83         2.41          0.1600            0.0000           0.0000       PFind                   None            0.00    0.00    None
 27.4000         3.2524           0.0000          0.0000           152.50         8.99          0.0200            0.0000          21.3500       PFind                   None            0.00    0.00    None
 29.7800         2.9976           0.0000          0.0000            56.67         3.34          0.1200            0.0000           9.0667       PFind                   None            0.00    0.00    None
 30.4200         2.9360           0.0000          0.0000            48.33         2.85          0.1600            0.0000           4.8333       PFind                   None            0.00    0.00    None
 31.4800         2.8395           0.0000          0.0000            30.00         1.77          0.1000            0.0000           1.2000       PFind                   None            0.00    0.00    None
 34.5200         2.5961           0.0000          0.0000            58.33         3.44          0.0000            0.0000           5.8333       PFind                   None            0.00    0.00    None
 35.4200         2.5322           0.0000          0.0000           142.50         8.40          0.0400            0.0000          19.9500       PFind                   None            0.00    0.00    None
 37.3800         2.4038           0.0000          0.0000            40.83         2.41          0.1200            0.0000           6.5333       PFind                   None            0.00    0.00    None
 38.7400         2.3225           0.0000          0.0000            38.33         2.26          0.1000            0.0000           0.7667       PFind                   None            0.00    0.00    None
 41.2600         2.1862           0.0000          0.0000            44.17         2.60          0.0400            0.0000           0.8833       PFind                   None            0.00    0.00    None
 43.5600         2.0760           0.0000          0.0000            50.00         2.95          0.1400            0.0000           8.0000       PFind                   None            0.00    0.00    None
 45.5000         1.9919           0.0000          0.0000           115.83         6.83          0.0800            0.0000          18.5333       PFind                   None            0.00    0.00    None
 47.8600         1.8990           0.0000          0.0000            78.33         4.62          0.0400            0.0000           4.7000       PFind                   None            0.00    0.00    None
 49.8200         1.8288           0.0000          0.0000            51.67         3.05          0.0000            0.0000           6.2000       PFind                   None            0.00    0.00    None
 50.6600         1.8004           0.0000          0.0000            34.17         2.01          0.1000            0.0000           2.0500       PFind                   None            0.00    0.00    None
 52.0200         1.7565           0.0000          0.0000           178.33        10.52          0.0400            0.0000           7.1333       PFind                   None            0.00    0.00    None
 54.7400         1.6755           0.0000          0.0000            60.83         3.59          0.0400            0.0000           6.0833       PFind                   None            0.00    0.00    None
 55.7400         1.6478           0.0000          0.0000            30.83         1.82          0.0800            0.0000           4.9333       PFind                   None            0.00    0.00    None
 58.9400         1.5657           0.0000          0.0000            38.33         2.26          0.1200            0.0000           2.3000       PFind                   None            0.00    0.00    None
 59.8600         1.5438           0.0000          0.0000           178.33        10.52          0.1200            0.0000          21.4000       PFind                   None            0.00    0.00    None
 61.3400         1.5101           0.0000          0.0000            46.67         2.75          0.1600            0.0000           5.6000       PFind                   None            0.00    0.00    None
 63.4000         1.4659           0.0000          0.0000           995.00        58.67          0.0800            0.0000          39.8000       PFind                   None            0.00    0.00    None
 63.9200         1.4552           0.0000          0.0000            50.83         3.00          0.0800            0.0000           4.0667       PFind                   None            0.00    0.00    None