File: Generating XRD fingerprints/INPUT/Detrital data/G66_pf_RT.txt
Filename:
	C:\Program Files\Thermo Electron\WinXRD\Datafiles\FIEN2\GEO\G66_RT.pk

File Created:
	February 25, 2021 - 09:55 AM

Specimen Id:
	G66_RT

Specimen Name:

Specimen Description:

Comment:
Scan Type: 2Theta Scan
Start Angle: 3 deg.
Stop Angle: 65 deg.
Num Points: 3101
Step Size: 0.02 deg.
Scan Rate: 1.000000
Scan Mode: Continuous
Wavelength: 1.540562
\Kalpha1: 1.540562	\Kalpha2: 1.544390	\Kbeta: 1.392218

Optics:
		Detector:
			 Type: Fixed Slits
		Tube:
			 Type: Fixed Slits

Datas:
Peaks:

Position        Dspace          ESD(P)          Corr.Fact       Intensity       Rel.Int.        FWHM(L)         ESD(L)          Area            Source                  Curve           Strain  CSize   CSize_Source
[deg]           [A]             [deg]           [deg]           [CPS]           [CPS]           [deg]           [deg]           [deg]           [--]                    [--]            [--]    [--]    [--]
  4.6400        19.0284           0.0000          0.0000            51.67         1.10          0.1400            0.0000           2.0667       PFind                   None            0.00    0.00    None
  5.0400        17.5191           0.0000          0.0000            55.00         1.17          0.1000            0.0000           3.3000       PFind                   None            0.00    0.00    None
  5.6200        15.7123           0.0000          0.0000            55.83         1.19          0.0800            0.0000           0.0000       PFind                   None            0.00    0.00    None
  6.6000        13.3813           0.0000          0.0000            53.33         1.14          0.1000            0.0000           2.1333       PFind                   None            0.00    0.00    None
  7.1600        12.3359           0.0000          0.0000            49.17         1.05          0.1200            0.0000           3.9333       PFind                   None            0.00    0.00    None
  7.5800        11.6533           0.0000          0.0000            32.50         0.69          0.1600            0.0000           1.9500       PFind                   None            0.00    0.00    None
  8.2800        10.6696           0.0000          0.0000            41.67         0.89          0.1000            0.0000           3.3333       PFind                   None            0.00    0.00    None
  9.3800         9.4207           0.0000          0.0000            54.17         1.16          0.1200            0.0000           6.5000       PFind                   None            0.00    0.00    None
 10.4400         8.4665           0.0000          0.0000            50.00         1.07          0.1200            0.0000           4.0000       PFind                   None            0.00    0.00    None
 11.0400         8.0076           0.0000          0.0000            34.17         0.73          0.0200            0.0000           1.3667       PFind                   None            0.00    0.00    None
 11.7600         7.5189           0.0000          0.0000            37.50         0.80          0.1200            0.0000           3.7500       PFind                   None            0.00    0.00    None
 13.0800         6.7630           0.0000          0.0000            30.83         0.66          0.0400            0.0000           1.2333       PFind                   None            0.00    0.00    None
 13.6200         6.4960           0.0000          0.0000            47.50         1.01          0.0600            0.0000           2.8500       PFind                   None            0.00    0.00    None
 14.3400         6.1714           0.0000          0.0000            29.17         0.62          0.0800            0.0000           0.5833       PFind                   None            0.00    0.00    None
 15.1600         5.8394           0.0000          0.0000            34.17         0.73          0.0200            0.0000           0.0000       PFind                   None            0.00    0.00    None
 16.2000         5.4668           0.0000          0.0000            30.83         0.66          0.0600            0.0000           1.2333       PFind                   None            0.00    0.00    None
 18.5000         4.7920           0.0000          0.0000            83.33         1.78          0.0800            0.0000          11.6667       PFind                   None            0.00    0.00    None
 19.5600         4.5347           0.0000          0.0000            26.67         0.57          0.1000            0.0000           1.0667       PFind                   None            0.00    0.00    None
 20.7800         4.2711           0.0000          0.0000           670.83        14.32          0.0400            0.0000          53.6667       PFind                   None            0.00    0.00    None
 22.8600         3.8870           0.0000          0.0000            40.00         0.85          0.0800            0.0000           1.6000       PFind                   None            0.00    0.00    None
 24.5800         3.6187           0.0000          0.0000           268.33         5.73          0.0800            0.0000          37.5667       PFind                   None            0.00    0.00    None
 25.3200         3.5146           0.0000          0.0000           158.33         3.38          0.0800            0.0000          15.8333       PFind                   None            0.00    0.00    None
 26.8200         3.3214           0.0000          0.0000          1022.50        21.83          0.1600            0.0000         143.1500       PFind                   None            0.00    0.00    None
 28.5400         3.1250           0.0000          0.0000            75.00         1.60          0.0600            0.0000           9.0000       PFind                   None            0.00    0.00    None
 30.1400         2.9626           0.0000          0.0000            53.33         1.14          0.1000            0.0000           7.4667       PFind                   None            0.00    0.00    None
 31.2000         2.8644           0.0000          0.0000           118.33         2.53          0.1000            0.0000          18.9333       PFind                   None            0.00    0.00    None
 32.2200         2.7760           0.0000          0.0000            54.17         1.16          0.1400            0.0000           5.4167       PFind                   None            0.00    0.00    None
 34.9600         2.5644           0.0000          0.0000            81.67         1.74          0.0200            0.0000           9.8000       PFind                   None            0.00    0.00    None
 36.0600         2.4887           0.0000          0.0000            74.17         1.58          0.0400            0.0000           7.4167       PFind                   None            0.00    0.00    None
 37.5400         2.3939           0.0000          0.0000            53.33         1.14          0.1000            0.0000           5.3333       PFind                   None            0.00    0.00    None
 38.4800         2.3375           0.0000          0.0000            30.00         0.64          0.0600            0.0000           2.4000       PFind                   None            0.00    0.00    None
 40.2400         2.2393           0.0000          0.0000           131.67         2.81          0.0200            0.0000           7.9000       PFind                   None            0.00    0.00    None
 43.4400         2.0814           0.0000          0.0000           200.83         4.29          0.0800            0.0000          32.1333       PFind                   None            0.00    0.00    None
 44.9000         2.0171           0.0000          0.0000            47.50         1.01          0.1200            0.0000           3.8000       PFind                   None            0.00    0.00    None
 46.2400         1.9617           0.0000          0.0000            29.17         0.62          0.1000            0.0000           0.0000       PFind                   None            0.00    0.00    None
 49.1800         1.8511           0.0000          0.0000            29.17         0.62          0.0600            0.0000           0.5833       PFind                   None            0.00    0.00    None
 50.0600         1.8206           0.0000          0.0000           289.17         6.17          0.0800            0.0000          23.1333       PFind                   None            0.00    0.00    None
 51.2400         1.7814           0.0000          0.0000            35.00         0.75          0.0000            0.0000           5.6000       PFind                   None            0.00    0.00    None
 52.3800         1.7453           0.0000          0.0000            30.00         0.64          0.1000            0.0000           1.2000       PFind                   None            0.00    0.00    None
 54.2800         1.6886           0.0000          0.0000            74.17         1.58          0.0400            0.0000           2.9667       PFind                   None            0.00    0.00    None
 54.9400         1.6699           0.0000          0.0000           127.50         2.72          0.0400            0.0000           7.6500       PFind                   None            0.00    0.00    None
 56.1200         1.6375           0.0000          0.0000            33.33         0.71          0.0800            0.0000           0.6667       PFind                   None            0.00    0.00    None
 57.7200         1.5959           0.0000          0.0000            67.50         1.44          0.1400            0.0000           4.0500       PFind                   None            0.00    0.00    None
 59.1400         1.5609           0.0000          0.0000            35.00         0.75          0.1600            0.0000           3.5000       PFind                   None            0.00    0.00    None
 60.7600         1.5231           0.0000          0.0000            37.50         0.80          0.0600            0.0000           6.0000       PFind                   None            0.00    0.00    None
 61.4600         1.5074           0.0000          0.0000            35.83         0.77          0.1600            0.0000           5.7333       PFind                   None            0.00    0.00    None
 62.0400         1.4947           0.0000          0.0000            51.67         1.10          0.1400            0.0000           4.1333       PFind                   None            0.00    0.00    None
 64.1800         1.4499           0.0000          0.0000            54.17         1.16          0.1400            0.0000           5.4167       PFind                   None            0.00    0.00    None