File: Generating XRD fingerprints/INPUT/Detrital data/G67_pf_RT.txt
Filename:
	C:\Program Files\Thermo Electron\WinXRD\Datafiles\FIEN2\GEO\G67_RT.pk

File Created:
	February 25, 2021 - 09:55 AM

Specimen Id:
	G67_RT

Specimen Name:

Specimen Description:

Comment:
Scan Type: 2Theta Scan
Start Angle: 3 deg.
Stop Angle: 65 deg.
Num Points: 3101
Step Size: 0.02 deg.
Scan Rate: 1.000000
Scan Mode: Continuous
Wavelength: 1.540562
\Kalpha1: 1.540562	\Kalpha2: 1.544390	\Kbeta: 1.392218

Optics:
		Detector:
			 Type: Fixed Slits
		Tube:
			 Type: Fixed Slits

Datas:
Peaks:

Position        Dspace          ESD(P)          Corr.Fact       Intensity       Rel.Int.        FWHM(L)         ESD(L)          Area            Source                  Curve           Strain  CSize   CSize_Source
[deg]           [A]             [deg]           [deg]           [CPS]           [CPS]           [deg]           [deg]           [deg]           [--]                    [--]            [--]    [--]    [--]
  4.8000        18.3945           0.0000          0.0000            58.33         2.17          0.0600            0.0000           7.0000       PFind                   None            0.00    0.00    None
  5.6600        15.6013           0.0000          0.0000            56.67         2.11          0.0000            0.0000           1.1333       PFind                   None            0.00    0.00    None
  7.1200        12.4051           0.0000          0.0000            38.33         1.43          0.0800            0.0000           2.3000       PFind                   None            0.00    0.00    None
  7.7600        11.3834           0.0000          0.0000            43.33         1.61          0.0600            0.0000           2.6000       PFind                   None            0.00    0.00    None
  9.3200         9.4812           0.0000          0.0000            59.17         2.20          0.0800            0.0000           3.5500       PFind                   None            0.00    0.00    None
 10.0000         8.8380           0.0000          0.0000            39.17         1.46          0.0200            0.0000           0.7833       PFind                   None            0.00    0.00    None
 11.0200         8.0221           0.0000          0.0000            31.67         1.18          0.0600            0.0000           0.0000       PFind                   None            0.00    0.00    None
 12.1200         7.2964           0.0000          0.0000           445.00        16.57          0.0000            0.0000          26.7000       PFind                   None            0.00    0.00    None
 12.9200         6.8464           0.0000          0.0000            28.33         1.05          0.0800            0.0000           0.0000       PFind                   None            0.00    0.00    None
 13.7800         6.4210           0.0000          0.0000           157.50         5.86          0.0800            0.0000           9.4500       PFind                   None            0.00    0.00    None
 14.8600         5.9566           0.0000          0.0000            32.50         1.21          0.1200            0.0000           2.6000       PFind                   None            0.00    0.00    None
 16.5800         5.3424           0.0000          0.0000            25.83         0.96          0.0400            0.0000           2.0667       PFind                   None            0.00    0.00    None
 19.1200         4.6380           0.0000          0.0000            28.33         1.05          0.1000            0.0000           0.5667       PFind                   None            0.00    0.00    None
 19.9200         4.4535           0.0000          0.0000            35.83         1.33          0.1200            0.0000           0.7167       PFind                   None            0.00    0.00    None
 22.2200         3.9974           0.0000          0.0000            27.50         1.02          0.0800            0.0000           1.6500       PFind                   None            0.00    0.00    None
 23.4800         3.7857           0.0000          0.0000           120.83         4.50          0.0600            0.0000          14.5000       PFind                   None            0.00    0.00    None
 24.5400         3.6245           0.0000          0.0000           195.00         7.26          0.0600            0.0000          27.3000       PFind                   None            0.00    0.00    None
 26.5600         3.3533           0.0000          0.0000          2685.83       100.00          0.1200            0.0000         268.5833       PFind                   None            0.00    0.00    None
 27.8400         3.2019           0.0000          0.0000          1046.67        38.97          0.0000            0.0000         104.6667       PFind                   None            0.00    0.00    None
 29.9800         2.9781           0.0000          0.0000            57.50         2.14          0.0200            0.0000           8.0500       PFind                   None            0.00    0.00    None
 31.1800         2.8661           0.0000          0.0000            63.33         2.36          0.1000            0.0000          10.1333       PFind                   None            0.00    0.00    None
 32.1800         2.7793           0.0000          0.0000            48.33         1.80          0.1000            0.0000           7.7333       PFind                   None            0.00    0.00    None
 34.4400         2.6019           0.0000          0.0000            85.00         3.16          0.0200            0.0000           8.5000       PFind                   None            0.00    0.00    None
 35.4800         2.5280           0.0000          0.0000           110.83         4.13          0.0800            0.0000          17.7333       PFind                   None            0.00    0.00    None
 37.0400         2.4250           0.0000          0.0000            34.17         1.27          0.1200            0.0000           2.7333       PFind                   None            0.00    0.00    None
 38.7800         2.3201           0.0000          0.0000            33.33         1.24          0.0200            0.0000           2.6667       PFind                   None            0.00    0.00    None
 40.2200         2.2403           0.0000          0.0000           103.33         3.85          0.0400            0.0000           6.2000       PFind                   None            0.00    0.00    None
 42.3800         2.1310           0.0000          0.0000           187.50         6.98          0.0200            0.0000          15.0000       PFind                   None            0.00    0.00    None
 45.0000         2.0128           0.0000          0.0000            41.67         1.55          0.1600            0.0000           6.6667       PFind                   None            0.00    0.00    None
 47.1000         1.9279           0.0000          0.0000            30.83         1.15          0.1200            0.0000           1.8500       PFind                   None            0.00    0.00    None
 49.1200         1.8532           0.0000          0.0000            96.67         3.60          0.0800            0.0000           3.8667       PFind                   None            0.00    0.00    None
 52.1600         1.7521           0.0000          0.0000            49.17         1.83          0.1400            0.0000           6.8833       PFind                   None            0.00    0.00    None
 53.2400         1.7191           0.0000          0.0000            85.00         3.16          0.0000            0.0000          10.2000       PFind                   None            0.00    0.00    None
 55.2600         1.6609           0.0000          0.0000            67.50         2.51          0.0800            0.0000           5.4000       PFind                   None            0.00    0.00    None
 58.2200         1.5834           0.0000          0.0000            30.00         1.12          0.0800            0.0000           4.2000       PFind                   None            0.00    0.00    None
 59.1800         1.5599           0.0000          0.0000            36.67         1.37          0.0800            0.0000           2.9333       PFind                   None            0.00    0.00    None
 60.4400         1.5304           0.0000          0.0000            26.67         0.99          0.0200            0.0000           3.7333       PFind                   None            0.00    0.00    None
 61.1400         1.5145           0.0000          0.0000            35.00         1.30          0.1600            0.0000           1.4000       PFind                   None            0.00    0.00    None
 62.5400         1.4840           0.0000          0.0000            52.50         1.95          0.1000            0.0000           3.1500       PFind                   None            0.00    0.00    None
 63.9600         1.4544           0.0000          0.0000            65.00         2.42          0.1600            0.0000           1.3000       PFind                   None            0.00    0.00    None
 64.2600         1.4483           0.0000          0.0000            31.67         1.18          0.0800            0.0000           2.5333       PFind                   None            0.00    0.00    None