File: Generating XRD fingerprints/INPUT/Detrital data/G68_pf_RT.txt
Filename:
	C:\Program Files\Thermo Electron\WinXRD\Datafiles\FIEN2\GEO\G68_RT.pk

File Created:
	February 25, 2021 - 09:56 AM

Specimen Id:
	G68_RT

Specimen Name:

Specimen Description:

Comment:
Scan Type: 2Theta Scan
Start Angle: 3 deg.
Stop Angle: 65 deg.
Num Points: 3101
Step Size: 0.02 deg.
Scan Rate: 1.000000
Scan Mode: Continuous
Wavelength: 1.540562
\Kalpha1: 1.540562	\Kalpha2: 1.544390	\Kbeta: 1.392218

Optics:
		Detector:
			 Type: Fixed Slits
		Tube:
			 Type: Fixed Slits

Datas:
Peaks:

Position        Dspace          ESD(P)          Corr.Fact       Intensity       Rel.Int.        FWHM(L)         ESD(L)          Area            Source                  Curve           Strain  CSize   CSize_Source
[deg]           [A]             [deg]           [deg]           [CPS]           [CPS]           [deg]           [deg]           [deg]           [--]                    [--]            [--]    [--]    [--]
  4.7400        18.6272           0.0000          0.0000            72.50         3.44          0.1600            0.0000           0.0000       PFind                   None            0.00    0.00    None
  5.3800        16.4127           0.0000          0.0000            50.00         2.37          0.1200            0.0000           7.0000       PFind                   None            0.00    0.00    None
  6.5000        13.5869           0.0000          0.0000            60.00         2.84          0.1400            0.0000           4.8000       PFind                   None            0.00    0.00    None
  7.0600        12.5104           0.0000          0.0000            34.17         1.62          0.1600            0.0000           2.7333       PFind                   None            0.00    0.00    None
  7.4800        11.8089           0.0000          0.0000            42.50         2.02          0.1600            0.0000           3.4000       PFind                   None            0.00    0.00    None
  8.7000        10.1555           0.0000          0.0000           895.00        42.43          0.1400            0.0000          35.8000       PFind                   None            0.00    0.00    None
  9.5400         9.2631           0.0000          0.0000            51.67         2.45          0.0400            0.0000           2.0667       PFind                   None            0.00    0.00    None
 10.3800         8.5153           0.0000          0.0000           599.17        28.41          0.0800            0.0000          23.9667       PFind                   None            0.00    0.00    None
 11.1600         7.9218           0.0000          0.0000            37.50         1.78          0.0800            0.0000           3.7500       PFind                   None            0.00    0.00    None
 12.1800         7.2606           0.0000          0.0000           616.67        29.24          0.0600            0.0000          86.3333       PFind                   None            0.00    0.00    None
 13.4000         6.6022           0.0000          0.0000            34.17         1.62          0.1600            0.0000           0.0000       PFind                   None            0.00    0.00    None
 14.0200         6.3116           0.0000          0.0000            33.33         1.58          0.1000            0.0000           2.0000       PFind                   None            0.00    0.00    None
 18.3800         4.8230           0.0000          0.0000           299.17        14.18          0.0200            0.0000          29.9167       PFind                   None            0.00    0.00    None
 19.3600         4.5810           0.0000          0.0000            35.83         1.70          0.1000            0.0000           0.0000       PFind                   None            0.00    0.00    None
 20.4400         4.3414           0.0000          0.0000            42.50         2.02          0.1400            0.0000           0.0000       PFind                   None            0.00    0.00    None
 21.9000         4.0551           0.0000          0.0000           114.17         5.41          0.0800            0.0000          13.7000       PFind                   None            0.00    0.00    None
 23.6800         3.7542           0.0000          0.0000            61.67         2.92          0.1200            0.0000           2.4667       PFind                   None            0.00    0.00    None
 24.6400         3.6100           0.0000          0.0000           285.83        13.55          0.0400            0.0000          45.7333       PFind                   None            0.00    0.00    None
 26.4600         3.3657           0.0000          0.0000          2109.17       100.00          0.0000            0.0000         168.7333       PFind                   None            0.00    0.00    None
 27.7200         3.2155           0.0000          0.0000           984.17        46.66          0.0800            0.0000          98.4167       PFind                   None            0.00    0.00    None
 29.6600         3.0095           0.0000          0.0000           100.83         4.78          0.1000            0.0000          14.1167       PFind                   None            0.00    0.00    None
 30.7000         2.9099           0.0000          0.0000            84.17         3.99          0.0800            0.0000          13.4667       PFind                   None            0.00    0.00    None
 31.8400         2.8082           0.0000          0.0000           106.67         5.06          0.0400            0.0000          14.9333       PFind                   None            0.00    0.00    None
 33.9200         2.6406           0.0000          0.0000            37.50         1.78          0.1200            0.0000           1.5000       PFind                   None            0.00    0.00    None
 35.3800         2.5349           0.0000          0.0000           248.33        11.77          0.0200            0.0000          39.7333       PFind                   None            0.00    0.00    None
 37.1600         2.4175           0.0000          0.0000            69.17         3.28          0.1400            0.0000           9.6833       PFind                   None            0.00    0.00    None
 38.8800         2.3144           0.0000          0.0000            55.00         2.61          0.1200            0.0000           2.2000       PFind                   None            0.00    0.00    None
 39.8800         2.2587           0.0000          0.0000            40.83         1.94          0.1000            0.0000           0.8167       PFind                   None            0.00    0.00    None
 41.4800         2.1751           0.0000          0.0000           310.83        14.74          0.0800            0.0000          12.4333       PFind                   None            0.00    0.00    None
 43.4800         2.0796           0.0000          0.0000            35.00         1.66          0.0000            0.0000           2.1000       PFind                   None            0.00    0.00    None
 44.7800         2.0222           0.0000          0.0000            60.00         2.84          0.1200            0.0000           7.2000       PFind                   None            0.00    0.00    None
 47.0200         1.9310           0.0000          0.0000            52.50         2.49          0.1400            0.0000           7.3500       PFind                   None            0.00    0.00    None
 48.2400         1.8849           0.0000          0.0000           105.00         4.98          0.1000            0.0000           4.2000       PFind                   None            0.00    0.00    None
 49.6200         1.8357           0.0000          0.0000            38.33         1.82          0.0800            0.0000           3.8333       PFind                   None            0.00    0.00    None
 50.4800         1.8064           0.0000          0.0000            88.33         4.19          0.0000            0.0000           7.0667       PFind                   None            0.00    0.00    None
 52.1000         1.7540           0.0000          0.0000            39.17         1.86          0.0800            0.0000           3.1333       PFind                   None            0.00    0.00    None
 54.6800         1.6772           0.0000          0.0000            78.33         3.71          0.1200            0.0000           7.8333       PFind                   None            0.00    0.00    None
 55.9000         1.6434           0.0000          0.0000            40.83         1.94          0.0400            0.0000           3.2667       PFind                   None            0.00    0.00    None
 57.6200         1.5984           0.0000          0.0000            41.67         1.98          0.1000            0.0000           0.8333       PFind                   None            0.00    0.00    None
 58.9800         1.5647           0.0000          0.0000            73.33         3.48          0.0400            0.0000           7.3333       PFind                   None            0.00    0.00    None
 60.3000         1.5336           0.0000          0.0000            35.83         1.70          0.0000            0.0000           3.5833       PFind                   None            0.00    0.00    None
 61.3000         1.5110           0.0000          0.0000            57.50         2.73          0.0600            0.0000           5.7500       PFind                   None            0.00    0.00    None
 61.7200         1.5017           0.0000          0.0000            37.50         1.78          0.0800            0.0000           6.0000       PFind                   None            0.00    0.00    None
 63.8400         1.4568           0.0000          0.0000            35.83         1.70          0.0200            0.0000           2.1500       PFind                   None            0.00    0.00    None