File: Generating XRD fingerprints/INPUT/Detrital data/G71_pf_RT.txt
Filename:
	C:\Program Files\Thermo Electron\WinXRD\Datafiles\FIEN2\GEO\G71_RT.pk

File Created:
	February 25, 2021 - 09:57 AM

Specimen Id:
	G71_RT

Specimen Name:

Specimen Description:

Comment:
Scan Type: 2Theta Scan
Start Angle: 3 deg.
Stop Angle: 65 deg.
Num Points: 3101
Step Size: 0.02 deg.
Scan Rate: 1.000000
Scan Mode: Continuous
Wavelength: 1.540562
\Kalpha1: 1.540562	\Kalpha2: 1.544390	\Kbeta: 1.392218

Optics:
		Detector:
			 Type: Fixed Slits
		Tube:
			 Type: Fixed Slits

Datas:
Peaks:

Position        Dspace          ESD(P)          Corr.Fact       Intensity       Rel.Int.        FWHM(L)         ESD(L)          Area            Source                  Curve           Strain  CSize   CSize_Source
[deg]           [A]             [deg]           [deg]           [CPS]           [CPS]           [deg]           [deg]           [deg]           [--]                    [--]            [--]    [--]    [--]
  4.6600        18.9468           0.0000          0.0000            40.83         1.45          0.1000            0.0000           4.0833       PFind                   None            0.00    0.00    None
  5.5800        15.8248           0.0000          0.0000            47.50         1.68          0.1000            0.0000           4.7500       PFind                   None            0.00    0.00    None
  6.8000        12.9882           0.0000          0.0000            40.83         1.45          0.1200            0.0000           2.4500       PFind                   None            0.00    0.00    None
  7.5000        11.7774           0.0000          0.0000            40.00         1.42          0.1000            0.0000           0.8000       PFind                   None            0.00    0.00    None
  8.2600        10.6954           0.0000          0.0000            36.67         1.30          0.0200            0.0000           2.2000       PFind                   None            0.00    0.00    None
  9.5600         9.2437           0.0000          0.0000            35.83         1.27          0.0200            0.0000           0.7167       PFind                   None            0.00    0.00    None
 10.4400         8.4665           0.0000          0.0000           110.83         3.93          0.0000            0.0000           8.8667       PFind                   None            0.00    0.00    None
 11.0600         7.9932           0.0000          0.0000            25.00         0.89          0.1400            0.0000           3.5000       PFind                   None            0.00    0.00    None
 11.7400         7.5317           0.0000          0.0000            32.50         1.15          0.0400            0.0000           0.0000       PFind                   None            0.00    0.00    None
 13.1600         6.7220           0.0000          0.0000            25.83         0.92          0.0200            0.0000           0.5167       PFind                   None            0.00    0.00    None
 14.6200         6.0539           0.0000          0.0000            23.33         0.83          0.0000            0.0000           2.3333       PFind                   None            0.00    0.00    None
 15.4800         5.7194           0.0000          0.0000            24.17         0.86          0.0400            0.0000           0.4833       PFind                   None            0.00    0.00    None
 16.3800         5.4071           0.0000          0.0000            28.33         1.01          0.0000            0.0000           1.1333       PFind                   None            0.00    0.00    None
 18.9000         4.6915           0.0000          0.0000            23.33         0.83          0.0400            0.0000           3.2667       PFind                   None            0.00    0.00    None
 19.7200         4.4982           0.0000          0.0000            48.33         1.71          0.1000            0.0000           7.7333       PFind                   None            0.00    0.00    None
 22.4400         3.9588           0.0000          0.0000            20.83         0.74          0.0200            0.0000           0.4167       PFind                   None            0.00    0.00    None
 23.9400         3.7140           0.0000          0.0000            30.83         1.09          0.0200            0.0000           1.2333       PFind                   None            0.00    0.00    None
 24.7600         3.5928           0.0000          0.0000            68.33         2.42          0.0200            0.0000           6.8333       PFind                   None            0.00    0.00    None
 26.7800         3.3262           0.0000          0.0000           604.17        21.43          0.1000            0.0000          96.6667       PFind                   None            0.00    0.00    None
 28.2000         3.1619           0.0000          0.0000            72.50         2.57          0.0200            0.0000          10.1500       PFind                   None            0.00    0.00    None
 30.4200         2.9360           0.0000          0.0000            81.67         2.90          0.0200            0.0000           9.8000       PFind                   None            0.00    0.00    None
 31.9600         2.7980           0.0000          0.0000            41.67         1.48          0.1600            0.0000           4.1667       PFind                   None            0.00    0.00    None
 33.7600         2.6528           0.0000          0.0000            61.67         2.19          0.0600            0.0000           2.4667       PFind                   None            0.00    0.00    None
 35.2600         2.5433           0.0000          0.0000            31.67         1.12          0.0600            0.0000           5.0667       PFind                   None            0.00    0.00    None
 37.5200         2.3951           0.0000          0.0000            87.50         3.10          0.1000            0.0000          10.5000       PFind                   None            0.00    0.00    None
 38.7000         2.3248           0.0000          0.0000            25.83         0.92          0.0400            0.0000           2.5833       PFind                   None            0.00    0.00    None
 40.9400         2.2026           0.0000          0.0000            26.67         0.95          0.0600            0.0000           0.0000       PFind                   None            0.00    0.00    None
 42.3800         2.1310           0.0000          0.0000           289.17        10.26          0.0400            0.0000          11.5667       PFind                   None            0.00    0.00    None
 44.4400         2.0369           0.0000          0.0000           250.00         8.87          0.0200            0.0000          40.0000       PFind                   None            0.00    0.00    None
 46.1000         1.9673           0.0000          0.0000            22.50         0.80          0.0800            0.0000           0.9000       PFind                   None            0.00    0.00    None
 47.2200         1.9233           0.0000          0.0000            25.00         0.89          0.0000            0.0000           2.0000       PFind                   None            0.00    0.00    None
 49.2600         1.8483           0.0000          0.0000            24.17         0.86          0.0800            0.0000           0.0000       PFind                   None            0.00    0.00    None
 50.6600         1.8004           0.0000          0.0000            66.67         2.36          0.0000            0.0000           8.0000       PFind                   None            0.00    0.00    None
 52.4200         1.7440           0.0000          0.0000            25.83         0.92          0.0400            0.0000           1.0333       PFind                   None            0.00    0.00    None
 54.7800         1.6744           0.0000          0.0000            91.67         3.25          0.1000            0.0000          12.8333       PFind                   None            0.00    0.00    None
 55.7000         1.6489           0.0000          0.0000            61.67         2.19          0.0800            0.0000           7.4000       PFind                   None            0.00    0.00    None
 57.1600         1.6102           0.0000          0.0000            24.17         0.86          0.1400            0.0000           0.9667       PFind                   None            0.00    0.00    None
 58.9600         1.5652           0.0000          0.0000            22.50         0.80          0.0200            0.0000           0.9000       PFind                   None            0.00    0.00    None
 60.2600         1.5345           0.0000          0.0000            21.67         0.77          0.1600            0.0000           0.4333       PFind                   None            0.00    0.00    None
 61.2000         1.5132           0.0000          0.0000            21.67         0.77          0.1600            0.0000           2.6000       PFind                   None            0.00    0.00    None
 62.5800         1.4831           0.0000          0.0000            30.00         1.06          0.1600            0.0000           2.4000       PFind                   None            0.00    0.00    None
 64.5400         1.4427           0.0000          0.0000            22.50         0.80          0.0800            0.0000           0.4500       PFind                   None            0.00    0.00    None
 64.7800         1.4380           0.0000          0.0000            21.67         0.77          0.1200            0.0000           1.7333       PFind                   None            0.00    0.00    None