File: Generating XRD fingerprints/INPUT/Detrital data/G76_pf_RT.txt
Filename:
	C:\Program Files\Thermo Electron\WinXRD\Datafiles\FIEN2\GEO\G76_RT.pk

File Created:
	February 25, 2021 - 09:59 AM

Specimen Id:
	G76_RT

Specimen Name:

Specimen Description:

Comment:
Scan Type: 2Theta Scan
Start Angle: 3 deg.
Stop Angle: 65 deg.
Num Points: 3101
Step Size: 0.02 deg.
Scan Rate: 1.000000
Scan Mode: Continuous
Wavelength: 1.540562
\Kalpha1: 1.540562	\Kalpha2: 1.544390	\Kbeta: 1.392218

Optics:
		Detector:
			 Type: Fixed Slits
		Tube:
			 Type: Fixed Slits

Datas:
Peaks:

Position        Dspace          ESD(P)          Corr.Fact       Intensity       Rel.Int.        FWHM(L)         ESD(L)          Area            Source                  Curve           Strain  CSize   CSize_Source
[deg]           [A]             [deg]           [deg]           [CPS]           [CPS]           [deg]           [deg]           [deg]           [--]                    [--]            [--]    [--]    [--]
  4.7000        18.7856           0.0000          0.0000            42.50         2.03          0.0400            0.0000           3.4000       PFind                   None            0.00    0.00    None
  5.2800        16.7233           0.0000          0.0000            50.00         2.39          0.1400            0.0000           4.0000       PFind                   None            0.00    0.00    None
  6.2000        14.2437           0.0000          0.0000           293.33        14.00          0.0600            0.0000          35.2000       PFind                   None            0.00    0.00    None
  7.1000        12.4400           0.0000          0.0000            37.50         1.79          0.1600            0.0000           2.2500       PFind                   None            0.00    0.00    None
  8.1400        10.8528           0.0000          0.0000            36.67         1.75          0.1000            0.0000           1.4667       PFind                   None            0.00    0.00    None
  9.1800         9.6255           0.0000          0.0000           183.33         8.75          0.1000            0.0000          11.0000       PFind                   None            0.00    0.00    None
 10.0400         8.8029           0.0000          0.0000            26.67         1.27          0.1000            0.0000           2.1333       PFind                   None            0.00    0.00    None
 11.0400         8.0076           0.0000          0.0000            33.33         1.59          0.1600            0.0000           2.0000       PFind                   None            0.00    0.00    None
 12.4800         7.0867           0.0000          0.0000           530.83        25.33          0.0000            0.0000          74.3167       PFind                   None            0.00    0.00    None
 13.4400         6.5826           0.0000          0.0000            28.33         1.35          0.1200            0.0000           0.5667       PFind                   None            0.00    0.00    None
 14.4400         6.1289           0.0000          0.0000            30.00         1.43          0.0400            0.0000           0.6000       PFind                   None            0.00    0.00    None
 16.0400         5.5210           0.0000          0.0000            25.00         1.19          0.0400            0.0000           0.5000       PFind                   None            0.00    0.00    None
 17.4400         5.0808           0.0000          0.0000            32.50         1.55          0.1200            0.0000           1.3000       PFind                   None            0.00    0.00    None
 18.9800         4.6719           0.0000          0.0000            45.83         2.19          0.1600            0.0000           1.8333       PFind                   None            0.00    0.00    None
 19.9200         4.4535           0.0000          0.0000            55.00         2.62          0.0600            0.0000           6.6000       PFind                   None            0.00    0.00    None
 22.0600         4.0261           0.0000          0.0000           233.33        11.13          0.0600            0.0000          14.0000       PFind                   None            0.00    0.00    None
 23.4400         3.7921           0.0000          0.0000            28.33         1.35          0.0800            0.0000           0.5667       PFind                   None            0.00    0.00    None
 24.6400         3.6100           0.0000          0.0000           743.33        35.47          0.1000            0.0000         104.0667       PFind                   None            0.00    0.00    None
 26.1800         3.4011           0.0000          0.0000            30.83         1.47          0.0200            0.0000           0.6167       PFind                   None            0.00    0.00    None
 27.5200         3.2384           0.0000          0.0000           206.67         9.86          0.0800            0.0000          20.6667       PFind                   None            0.00    0.00    None
 28.6400         3.1143           0.0000          0.0000           140.83         6.72          0.0800            0.0000          22.5333       PFind                   None            0.00    0.00    None
 30.4400         2.9341           0.0000          0.0000           248.33        11.85          0.0600            0.0000           9.9333       PFind                   None            0.00    0.00    None
 32.0400         2.7911           0.0000          0.0000            46.67         2.23          0.0200            0.0000           6.5333       PFind                   None            0.00    0.00    None
 34.2600         2.6152           0.0000          0.0000           107.50         5.13          0.0600            0.0000           4.3000       PFind                   None            0.00    0.00    None
 36.1400         2.4833           0.0000          0.0000            51.67         2.47          0.0600            0.0000           6.2000       PFind                   None            0.00    0.00    None
 37.4000         2.4025           0.0000          0.0000            54.17         2.58          0.0000            0.0000           8.6667       PFind                   None            0.00    0.00    None
 39.9400         2.2554           0.0000          0.0000            33.33         1.59          0.1200            0.0000           0.6667       PFind                   None            0.00    0.00    None
 41.7000         2.1642           0.0000          0.0000            69.17         3.30          0.1200            0.0000          11.0667       PFind                   None            0.00    0.00    None
 43.5200         2.0778           0.0000          0.0000           160.00         7.63          0.0600            0.0000          25.6000       PFind                   None            0.00    0.00    None
 45.5600         1.9894           0.0000          0.0000           234.17        11.17          0.0800            0.0000          37.4667       PFind                   None            0.00    0.00    None
 48.1800         1.8872           0.0000          0.0000            36.67         1.75          0.1600            0.0000           3.6667       PFind                   None            0.00    0.00    None
 49.5800         1.8371           0.0000          0.0000            66.67         3.18          0.0400            0.0000           2.6667       PFind                   None            0.00    0.00    None
 50.7800         1.7965           0.0000          0.0000            26.67         1.27          0.1000            0.0000           4.2667       PFind                   None            0.00    0.00    None
 53.0000         1.7263           0.0000          0.0000            40.83         1.95          0.0200            0.0000           0.0000       PFind                   None            0.00    0.00    None
 58.5400         1.5755           0.0000          0.0000            34.17         1.63          0.0200            0.0000           0.0000       PFind                   None            0.00    0.00    None
 59.4800         1.5528           0.0000          0.0000            27.50         1.31          0.1000            0.0000           2.7500       PFind                   None            0.00    0.00    None
 60.9600         1.5186           0.0000          0.0000            42.50         2.03          0.1600            0.0000           4.2500       PFind                   None            0.00    0.00    None
 61.7000         1.5021           0.0000          0.0000            36.67         1.75          0.1600            0.0000           2.9333       PFind                   None            0.00    0.00    None
 64.0600         1.4524           0.0000          0.0000            40.83         1.95          0.1400            0.0000           1.6333       PFind                   None            0.00    0.00    None
 64.2200         1.4491           0.0000          0.0000            30.83         1.47          0.1200            0.0000           1.2333       PFind                   None            0.00    0.00    None