File: Generating XRD fingerprints/INPUT/Detrital data/G77_pf_RT.txt
Filename:
	C:\Program Files\Thermo Electron\WinXRD\Datafiles\FIEN2\GEO\G77_RT.pk

File Created:
	February 25, 2021 - 10:00 AM

Specimen Id:
	G77_RT

Specimen Name:

Specimen Description:

Comment:
Scan Type: 2Theta Scan
Start Angle: 3 deg.
Stop Angle: 65 deg.
Num Points: 3101
Step Size: 0.02 deg.
Scan Rate: 1.000000
Scan Mode: Continuous
Wavelength: 1.540562
\Kalpha1: 1.540562	\Kalpha2: 1.544390	\Kbeta: 1.392218

Optics:
		Detector:
			 Type: Fixed Slits
		Tube:
			 Type: Fixed Slits

Datas:
Peaks:

Position        Dspace          ESD(P)          Corr.Fact       Intensity       Rel.Int.        FWHM(L)         ESD(L)          Area            Source                  Curve           Strain  CSize   CSize_Source
[deg]           [A]             [deg]           [deg]           [CPS]           [CPS]           [deg]           [deg]           [deg]           [--]                    [--]            [--]    [--]    [--]
  4.9000        18.0193           0.0000          0.0000            41.67         1.87          0.1000            0.0000           6.6667       PFind                   None            0.00    0.00    None
  5.2800        16.7233           0.0000          0.0000            47.50         2.13          0.1000            0.0000           4.7500       PFind                   None            0.00    0.00    None
  5.7400        15.3841           0.0000          0.0000            54.17         2.43          0.0000            0.0000           0.0000       PFind                   None            0.00    0.00    None
  6.5600        13.4628           0.0000          0.0000            32.50         1.46          0.1200            0.0000           4.5500       PFind                   None            0.00    0.00    None
  7.3800        11.9687           0.0000          0.0000            35.00         1.57          0.1400            0.0000           2.1000       PFind                   None            0.00    0.00    None
  8.3000        10.6440           0.0000          0.0000            45.83         2.06          0.0800            0.0000           6.4167       PFind                   None            0.00    0.00    None
  9.2800         9.5220           0.0000          0.0000            35.83         1.61          0.0400            0.0000           0.7167       PFind                   None            0.00    0.00    None
 10.1000         8.7507           0.0000          0.0000            31.67         1.42          0.0800            0.0000           0.0000       PFind                   None            0.00    0.00    None
 11.5400         7.6618           0.0000          0.0000            32.50         1.46          0.1600            0.0000           0.6500       PFind                   None            0.00    0.00    None
 12.8200         6.8995           0.0000          0.0000            35.83         1.61          0.0800            0.0000           0.7167       PFind                   None            0.00    0.00    None
 13.7800         6.4210           0.0000          0.0000            69.17         3.11          0.0800            0.0000           5.5333       PFind                   None            0.00    0.00    None
 17.7600         4.9900           0.0000          0.0000           141.67         6.36          0.0400            0.0000          17.0000       PFind                   None            0.00    0.00    None
 18.7000         4.7412           0.0000          0.0000            69.17         3.11          0.0600            0.0000           5.5333       PFind                   None            0.00    0.00    None
 19.7600         4.4892           0.0000          0.0000            40.83         1.83          0.1000            0.0000           4.9000       PFind                   None            0.00    0.00    None
 22.8600         3.8870           0.0000          0.0000            43.33         1.95          0.0000            0.0000           3.4667       PFind                   None            0.00    0.00    None
 23.6800         3.7542           0.0000          0.0000            44.17         1.98          0.1600            0.0000           4.4167       PFind                   None            0.00    0.00    None
 25.0600         3.5505           0.0000          0.0000           143.33         6.43          0.0200            0.0000          17.2000       PFind                   None            0.00    0.00    None
 26.8000         3.3238           0.0000          0.0000           416.67        18.71          0.1200            0.0000          66.6667       PFind                   None            0.00    0.00    None
 28.5600         3.1228           0.0000          0.0000            69.17         3.11          0.1200            0.0000           6.9167       PFind                   None            0.00    0.00    None
 30.0200         2.9742           0.0000          0.0000            82.50         3.70          0.1000            0.0000           9.9000       PFind                   None            0.00    0.00    None
 31.1600         2.8679           0.0000          0.0000            64.17         2.88          0.0600            0.0000          10.2667       PFind                   None            0.00    0.00    None
 32.1800         2.7793           0.0000          0.0000            95.83         4.30          0.0800            0.0000          11.5000       PFind                   None            0.00    0.00    None
 34.4200         2.6034           0.0000          0.0000            48.33         2.17          0.0600            0.0000           6.7667       PFind                   None            0.00    0.00    None
 35.5200         2.5253           0.0000          0.0000            99.17         4.45          0.1000            0.0000          13.8833       PFind                   None            0.00    0.00    None
 37.3800         2.4038           0.0000          0.0000            42.50         1.91          0.0600            0.0000           6.8000       PFind                   None            0.00    0.00    None
 38.6400         2.3282           0.0000          0.0000            36.67         1.65          0.1000            0.0000           0.0000       PFind                   None            0.00    0.00    None
 40.2000         2.2414           0.0000          0.0000            97.50         4.38          0.0400            0.0000           5.8500       PFind                   None            0.00    0.00    None
 41.6600         2.1662           0.0000          0.0000            47.50         2.13          0.1000            0.0000           4.7500       PFind                   None            0.00    0.00    None
 43.6400         2.0724           0.0000          0.0000            68.33         3.07          0.0600            0.0000          10.9333       PFind                   None            0.00    0.00    None
 44.4400         2.0369           0.0000          0.0000           212.50         9.54          0.0400            0.0000          34.0000       PFind                   None            0.00    0.00    None
 45.6800         1.9844           0.0000          0.0000           190.00         8.53          0.0600            0.0000          15.2000       PFind                   None            0.00    0.00    None
 49.8200         1.8288           0.0000          0.0000            57.50         2.58          0.1400            0.0000           8.0500       PFind                   None            0.00    0.00    None
 50.6400         1.8011           0.0000          0.0000            38.33         1.72          0.1400            0.0000           4.6000       PFind                   None            0.00    0.00    None
 52.6400         1.7373           0.0000          0.0000            33.33         1.50          0.0600            0.0000           2.6667       PFind                   None            0.00    0.00    None
 54.9200         1.6704           0.0000          0.0000            76.67         3.44          0.0800            0.0000           6.1333       PFind                   None            0.00    0.00    None
 55.6800         1.6494           0.0000          0.0000            33.33         1.50          0.0600            0.0000           4.6667       PFind                   None            0.00    0.00    None
 58.4800         1.5769           0.0000          0.0000           172.50         7.74          0.0000            0.0000          10.3500       PFind                   None            0.00    0.00    None
 59.8800         1.5434           0.0000          0.0000           312.50        14.03          0.1400            0.0000          18.7500       PFind                   None            0.00    0.00    None
 60.3800         1.5318           0.0000          0.0000            45.00         2.02          0.0200            0.0000           5.4000       PFind                   None            0.00    0.00    None
 61.5000         1.5065           0.0000          0.0000            43.33         1.95          0.1600            0.0000           3.4667       PFind                   None            0.00    0.00    None
 61.9800         1.4960           0.0000          0.0000            40.83         1.83          0.1600            0.0000           6.5333       PFind                   None            0.00    0.00    None
 63.4200         1.4655           0.0000          0.0000            32.50         1.46          0.0800            0.0000           1.9500       PFind                   None            0.00    0.00    None
 64.1000         1.4516           0.0000          0.0000            49.17         2.21          0.0400            0.0000           3.9333       PFind                   None            0.00    0.00    None