File: Generating XRD fingerprints/INPUT/Detrital data/G78_pf_RT.txt
Filename:
	C:\Program Files\Thermo Electron\WinXRD\Datafiles\FIEN2\GEO\G78_RT.pk

File Created:
	February 25, 2021 - 10:00 AM

Specimen Id:
	G78_RT

Specimen Name:

Specimen Description:

Comment:
Scan Type: 2Theta Scan
Start Angle: 3 deg.
Stop Angle: 65 deg.
Num Points: 3101
Step Size: 0.02 deg.
Scan Rate: 1.000000
Scan Mode: Continuous
Wavelength: 1.540562
\Kalpha1: 1.540562	\Kalpha2: 1.544390	\Kbeta: 1.392218

Optics:
		Detector:
			 Type: Fixed Slits
		Tube:
			 Type: Fixed Slits

Datas:
Peaks:

Position        Dspace          ESD(P)          Corr.Fact       Intensity       Rel.Int.        FWHM(L)         ESD(L)          Area            Source                  Curve           Strain  CSize   CSize_Source
[deg]           [A]             [deg]           [deg]           [CPS]           [CPS]           [deg]           [deg]           [deg]           [--]                    [--]            [--]    [--]    [--]
  4.7600        18.5490           0.0000          0.0000            67.50         6.98          0.0000            0.0000           2.7000       PFind                   None            0.00    0.00    None
  5.4400        16.2318           0.0000          0.0000            54.17         5.60          0.0000            0.0000           3.2500       PFind                   None            0.00    0.00    None
  6.3200        13.9735           0.0000          0.0000            52.50         5.43          0.1000            0.0000           8.4000       PFind                   None            0.00    0.00    None
  7.1600        12.3359           0.0000          0.0000            45.83         4.74          0.0800            0.0000           0.9167       PFind                   None            0.00    0.00    None
  7.8000        11.3251           0.0000          0.0000            45.00         4.66          0.0200            0.0000           0.9000       PFind                   None            0.00    0.00    None
  8.7600        10.0860           0.0000          0.0000           180.83        18.71          0.0800            0.0000          14.4667       PFind                   None            0.00    0.00    None
  9.3600         9.4408           0.0000          0.0000            45.00         4.66          0.0200            0.0000           1.8000       PFind                   None            0.00    0.00    None
 10.4400         8.4665           0.0000          0.0000            67.50         6.98          0.1000            0.0000           6.7500       PFind                   None            0.00    0.00    None
 11.4600         7.7151           0.0000          0.0000            34.17         3.53          0.1600            0.0000           0.6833       PFind                   None            0.00    0.00    None
 12.3600         7.1553           0.0000          0.0000           106.67        11.03          0.0000            0.0000          12.8000       PFind                   None            0.00    0.00    None
 13.1600         6.7220           0.0000          0.0000            37.50         3.88          0.0800            0.0000           0.7500       PFind                   None            0.00    0.00    None
 14.2600         6.2059           0.0000          0.0000            29.17         3.02          0.1600            0.0000           1.1667       PFind                   None            0.00    0.00    None
 15.0800         5.8702           0.0000          0.0000            28.33         2.93          0.1000            0.0000           2.8333       PFind                   None            0.00    0.00    None
 15.7200         5.6326           0.0000          0.0000            32.50         3.36          0.1000            0.0000           1.3000       PFind                   None            0.00    0.00    None
 16.3400         5.4203           0.0000          0.0000            30.00         3.10          0.0000            0.0000           0.6000       PFind                   None            0.00    0.00    None
 17.7200         5.0012           0.0000          0.0000            56.67         5.86          0.0000            0.0000           4.5333       PFind                   None            0.00    0.00    None
 18.8400         4.7063           0.0000          0.0000            27.50         2.84          0.0200            0.0000           0.5500       PFind                   None            0.00    0.00    None
 19.7400         4.4937           0.0000          0.0000            40.00         4.14          0.0200            0.0000           0.8000       PFind                   None            0.00    0.00    None
 21.5000         4.1297           0.0000          0.0000            22.50         2.33          0.1000            0.0000           0.0000       PFind                   None            0.00    0.00    None
 23.4000         3.7985           0.0000          0.0000            82.50         8.53          0.0400            0.0000           6.6000       PFind                   None            0.00    0.00    None
 25.0200         3.5561           0.0000          0.0000            69.17         7.16          0.0200            0.0000           4.1500       PFind                   None            0.00    0.00    None
 26.5000         3.3607           0.0000          0.0000           966.67       100.00          0.0400            0.0000          96.6667       PFind                   None            0.00    0.00    None
 27.6200         3.2269           0.0000          0.0000           224.17        23.19          0.1200            0.0000          35.8667       PFind                   None            0.00    0.00    None
 29.5000         3.0254           0.0000          0.0000            26.67         2.76          0.1400            0.0000           0.0000       PFind                   None            0.00    0.00    None
 30.6400         2.9154           0.0000          0.0000            39.17         4.05          0.0000            0.0000           3.9167       PFind                   None            0.00    0.00    None
 32.1200         2.7844           0.0000          0.0000            36.67         3.79          0.1200            0.0000           5.1333       PFind                   None            0.00    0.00    None
 33.6200         2.6635           0.0000          0.0000            21.67         2.24          0.1000            0.0000           0.0000       PFind                   None            0.00    0.00    None
 34.6600         2.5859           0.0000          0.0000            37.50         3.88          0.0600            0.0000           0.0000       PFind                   None            0.00    0.00    None
 36.4200         2.4649           0.0000          0.0000           106.67        11.03          0.0200            0.0000          14.9333       PFind                   None            0.00    0.00    None
 37.5400         2.3939           0.0000          0.0000            46.67         4.83          0.0800            0.0000           7.4667       PFind                   None            0.00    0.00    None
 40.1800         2.2425           0.0000          0.0000            49.17         5.09          0.0400            0.0000           3.9333       PFind                   None            0.00    0.00    None
 41.9000         2.1543           0.0000          0.0000            25.00         2.59          0.1000            0.0000           2.0000       PFind                   None            0.00    0.00    None
 44.3400         2.0413           0.0000          0.0000           279.17        28.88          0.1400            0.0000          44.6667       PFind                   None            0.00    0.00    None
 45.9800         1.9722           0.0000          0.0000            27.50         2.84          0.1400            0.0000           2.2000       PFind                   None            0.00    0.00    None
 48.0000         1.8938           0.0000          0.0000            24.17         2.50          0.0200            0.0000           1.4500       PFind                   None            0.00    0.00    None
 50.0000         1.8226           0.0000          0.0000           155.83        16.12          0.1600            0.0000           9.3500       PFind                   None            0.00    0.00    None
 51.9800         1.7578           0.0000          0.0000            23.33         2.41          0.1400            0.0000           2.8000       PFind                   None            0.00    0.00    None
 54.2200         1.6903           0.0000          0.0000            74.17         7.67          0.0400            0.0000           2.9667       PFind                   None            0.00    0.00    None
 55.6000         1.6516           0.0000          0.0000            25.00         2.59          0.0800            0.0000           4.0000       PFind                   None            0.00    0.00    None
 56.5600         1.6258           0.0000          0.0000            25.00         2.59          0.0400            0.0000           2.5000       PFind                   None            0.00    0.00    None
 60.0000         1.5406           0.0000          0.0000            97.50        10.09          0.0800            0.0000          11.7000       PFind                   None            0.00    0.00    None
 61.5600         1.5052           0.0000          0.0000            32.50         3.36          0.0600            0.0000           5.2000       PFind                   None            0.00    0.00    None
 62.5200         1.4844           0.0000          0.0000            21.67         2.24          0.0000            0.0000           0.4333       PFind                   None            0.00    0.00    None
 64.1200         1.4512           0.0000          0.0000            23.33         2.41          0.1600            0.0000           0.4667       PFind                   None            0.00    0.00    None