File: Generating XRD fingerprints/INPUT/Detrital data/G82_pf_RT.txt
Filename:
	C:\Program Files\Thermo Electron\WinXRD\Datafiles\FIEN2\GEO\G82_RT.pk

File Created:
	February 25, 2021 - 10:01 AM

Specimen Id:
	G82_RT

Specimen Name:

Specimen Description:

Comment:
Scan Type: 2Theta Scan
Start Angle: 3 deg.
Stop Angle: 65 deg.
Num Points: 3101
Step Size: 0.02 deg.
Scan Rate: 1.000000
Scan Mode: Continuous
Wavelength: 1.540562
\Kalpha1: 1.540562	\Kalpha2: 1.544390	\Kbeta: 1.392218

Optics:
		Detector:
			 Type: Fixed Slits
		Tube:
			 Type: Fixed Slits

Datas:
Peaks:

Position        Dspace          ESD(P)          Corr.Fact       Intensity       Rel.Int.        FWHM(L)         ESD(L)          Area            Source                  Curve           Strain  CSize   CSize_Source
[deg]           [A]             [deg]           [deg]           [CPS]           [CPS]           [deg]           [deg]           [deg]           [--]                    [--]            [--]    [--]    [--]
  4.7200        18.7061           0.0000          0.0000            70.00         2.92          0.0200            0.0000           5.6000       PFind                   None            0.00    0.00    None
  5.4800        16.1134           0.0000          0.0000            59.17         2.47          0.0800            0.0000           4.7333       PFind                   None            0.00    0.00    None
  6.1600        14.3361           0.0000          0.0000            82.50         3.44          0.0000            0.0000           3.3000       PFind                   None            0.00    0.00    None
  6.9000        12.8002           0.0000          0.0000            53.33         2.22          0.1000            0.0000           5.3333       PFind                   None            0.00    0.00    None
  7.2800        12.1328           0.0000          0.0000            40.83         1.70          0.0800            0.0000           0.0000       PFind                   None            0.00    0.00    None
  7.8400        11.2674           0.0000          0.0000            37.50         1.56          0.0800            0.0000           0.0000       PFind                   None            0.00    0.00    None
  8.5600        10.3212           0.0000          0.0000            73.33         3.06          0.0200            0.0000           1.4667       PFind                   None            0.00    0.00    None
  9.3200         9.4812           0.0000          0.0000            39.17         1.63          0.0800            0.0000           3.1333       PFind                   None            0.00    0.00    None
 10.2200         8.6482           0.0000          0.0000            36.67         1.53          0.1600            0.0000           0.0000       PFind                   None            0.00    0.00    None
 11.2200         7.8796           0.0000          0.0000            33.33         1.39          0.1200            0.0000           3.3333       PFind                   None            0.00    0.00    None
 12.4200         7.1208           0.0000          0.0000           115.83         4.83          0.0200            0.0000          11.5833       PFind                   None            0.00    0.00    None
 13.3600         6.6219           0.0000          0.0000            29.17         1.22          0.1400            0.0000           2.9167       PFind                   None            0.00    0.00    None
 14.2200         6.2233           0.0000          0.0000            33.33         1.39          0.0800            0.0000           0.6667       PFind                   None            0.00    0.00    None
 15.2400         5.8090           0.0000          0.0000            30.00         1.25          0.0800            0.0000           1.2000       PFind                   None            0.00    0.00    None
 16.8400         5.2605           0.0000          0.0000            29.17         1.22          0.0200            0.0000           1.1667       PFind                   None            0.00    0.00    None
 18.3800         4.8230           0.0000          0.0000            30.00         1.25          0.0600            0.0000           0.0000       PFind                   None            0.00    0.00    None
 19.2600         4.6046           0.0000          0.0000            30.00         1.25          0.0600            0.0000           3.6000       PFind                   None            0.00    0.00    None
 20.7800         4.2711           0.0000          0.0000           605.83        25.24          0.0000            0.0000          48.4667       PFind                   None            0.00    0.00    None
 21.9600         4.0442           0.0000          0.0000           139.17         5.80          0.0000            0.0000          13.9167       PFind                   None            0.00    0.00    None
 23.4800         3.7857           0.0000          0.0000           143.33         5.97          0.0800            0.0000          14.3333       PFind                   None            0.00    0.00    None
 24.2200         3.6717           0.0000          0.0000            80.83         3.37          0.1000            0.0000           8.0833       PFind                   None            0.00    0.00    None
 25.4400         3.4983           0.0000          0.0000            92.50         3.85          0.0400            0.0000          12.9500       PFind                   None            0.00    0.00    None
 27.0000         3.2996           0.0000          0.0000           110.00         4.58          0.0600            0.0000           8.8000       PFind                   None            0.00    0.00    None
 28.2400         3.1575           0.0000          0.0000            72.50         3.02          0.1000            0.0000          10.1500       PFind                   None            0.00    0.00    None
 29.9600         2.9800           0.0000          0.0000            46.67         1.94          0.1400            0.0000           3.7333       PFind                   None            0.00    0.00    None
 30.7800         2.9025           0.0000          0.0000            63.33         2.64          0.0800            0.0000           8.8667       PFind                   None            0.00    0.00    None
 32.0200         2.7928           0.0000          0.0000            53.33         2.22          0.1400            0.0000           2.1333       PFind                   None            0.00    0.00    None
 33.9400         2.6391           0.0000          0.0000            50.00         2.08          0.1400            0.0000           3.0000       PFind                   None            0.00    0.00    None
 35.3200         2.5391           0.0000          0.0000            44.17         1.84          0.0400            0.0000           7.0667       PFind                   None            0.00    0.00    None
 36.4600         2.4623           0.0000          0.0000           191.67         7.99          0.0200            0.0000          23.0000       PFind                   None            0.00    0.00    None
 38.8000         2.3190           0.0000          0.0000            58.33         2.43          0.1000            0.0000           7.0000       PFind                   None            0.00    0.00    None
 40.2400         2.2393           0.0000          0.0000           117.50         4.90          0.0400            0.0000          11.7500       PFind                   None            0.00    0.00    None
 42.3800         2.1310           0.0000          0.0000           127.50         5.31          0.0200            0.0000          15.3000       PFind                   None            0.00    0.00    None
 44.8600         2.0188           0.0000          0.0000            38.33         1.60          0.1600            0.0000           2.3000       PFind                   None            0.00    0.00    None
 45.5000         1.9919           0.0000          0.0000            90.83         3.78          0.1000            0.0000          14.5333       PFind                   None            0.00    0.00    None
 47.8800         1.8983           0.0000          0.0000            37.50         1.56          0.1200            0.0000           0.0000       PFind                   None            0.00    0.00    None
 48.4200         1.8784           0.0000          0.0000            30.00         1.25          0.0800            0.0000           3.6000       PFind                   None            0.00    0.00    None
 49.6200         1.8357           0.0000          0.0000            46.67         1.94          0.1200            0.0000           4.6667       PFind                   None            0.00    0.00    None
 51.0600         1.7873           0.0000          0.0000            69.17         2.88          0.0400            0.0000           2.7667       PFind                   None            0.00    0.00    None
 53.1600         1.7215           0.0000          0.0000            36.67         1.53          0.1000            0.0000           5.1333       PFind                   None            0.00    0.00    None
 54.9000         1.6710           0.0000          0.0000            59.17         2.47          0.1600            0.0000           3.5500       PFind                   None            0.00    0.00    None
 55.7600         1.6472           0.0000          0.0000            50.00         2.08          0.1200            0.0000           8.0000       PFind                   None            0.00    0.00    None
 59.0600         1.5628           0.0000          0.0000            33.33         1.39          0.1200            0.0000           0.6667       PFind                   None            0.00    0.00    None
 60.0400         1.5396           0.0000          0.0000           131.67         5.49          0.0600            0.0000          18.4333       PFind                   None            0.00    0.00    None
 61.4800         1.5070           0.0000          0.0000            59.17         2.47          0.1000            0.0000           8.2833       PFind                   None            0.00    0.00    None
 63.9400         1.4548           0.0000          0.0000            66.67         2.78          0.0000            0.0000           5.3333       PFind                   None            0.00    0.00    None
 64.1400         1.4507           0.0000          0.0000            33.33         1.39          0.1600            0.0000           4.0000       PFind                   None            0.00    0.00    None