File: Generating XRD fingerprints/INPUT/Detrital data/G83_pf_RT.txt
Filename:
	C:\Program Files\Thermo Electron\WinXRD\Datafiles\FIEN2\GEO\G83_RT.pk

File Created:
	February 25, 2021 - 10:03 AM

Specimen Id:
	G83_RT

Specimen Name:

Specimen Description:

Comment:
Scan Type: 2Theta Scan
Start Angle: 3 deg.
Stop Angle: 65 deg.
Num Points: 3101
Step Size: 0.02 deg.
Scan Rate: 1.000000
Scan Mode: Continuous
Wavelength: 1.540562
\Kalpha1: 1.540562	\Kalpha2: 1.544390	\Kbeta: 1.392218

Optics:
		Detector:
			 Type: Fixed Slits
		Tube:
			 Type: Fixed Slits

Datas:
Peaks:

Position        Dspace          ESD(P)          Corr.Fact       Intensity       Rel.Int.        FWHM(L)         ESD(L)          Area            Source                  Curve           Strain  CSize   CSize_Source
[deg]           [A]             [deg]           [deg]           [CPS]           [CPS]           [deg]           [deg]           [deg]           [--]                    [--]            [--]    [--]    [--]
  4.7000        18.7856           0.0000          0.0000            67.50        11.16          0.1200            0.0000           4.0500       PFind                   None            0.00    0.00    None
  5.4200        16.2916           0.0000          0.0000            61.67        10.19          0.1000            0.0000           0.0000       PFind                   None            0.00    0.00    None
  6.1800        14.2897           0.0000          0.0000            62.50        10.33          0.1000            0.0000           5.0000       PFind                   None            0.00    0.00    None
  6.9000        12.8002           0.0000          0.0000            48.33         7.99          0.0200            0.0000           2.9000       PFind                   None            0.00    0.00    None
  7.4400        11.8723           0.0000          0.0000            39.17         6.47          0.0800            0.0000           3.1333       PFind                   None            0.00    0.00    None
  8.2800        10.6696           0.0000          0.0000            33.33         5.51          0.0200            0.0000           4.0000       PFind                   None            0.00    0.00    None
  9.1200         9.6887           0.0000          0.0000            50.00         8.26          0.0600            0.0000           1.0000       PFind                   None            0.00    0.00    None
 10.0200         8.8204           0.0000          0.0000            30.83         5.10          0.0200            0.0000           0.6167       PFind                   None            0.00    0.00    None
 10.9200         8.0954           0.0000          0.0000            30.83         5.10          0.1000            0.0000           2.4667       PFind                   None            0.00    0.00    None
 11.4000         7.7556           0.0000          0.0000            25.00         4.13          0.1200            0.0000           0.5000       PFind                   None            0.00    0.00    None
 12.3800         7.1438           0.0000          0.0000            69.17        11.43          0.1000            0.0000           5.5333       PFind                   None            0.00    0.00    None
 13.0800         6.7630           0.0000          0.0000            23.33         3.86          0.1400            0.0000           3.7333       PFind                   None            0.00    0.00    None
 13.7600         6.4302           0.0000          0.0000            35.83         5.92          0.0000            0.0000           0.0000       PFind                   None            0.00    0.00    None
 14.7400         6.0049           0.0000          0.0000            30.83         5.10          0.1600            0.0000           0.6167       PFind                   None            0.00    0.00    None
 15.4600         5.7268           0.0000          0.0000            20.83         3.44          0.0200            0.0000           0.8333       PFind                   None            0.00    0.00    None
 16.2600         5.4468           0.0000          0.0000            29.17         4.82          0.0400            0.0000           0.5833       PFind                   None            0.00    0.00    None
 16.7400         5.2917           0.0000          0.0000            20.83         3.44          0.0600            0.0000           1.2500       PFind                   None            0.00    0.00    None
 17.5800         5.0407           0.0000          0.0000            45.83         7.58          0.0800            0.0000           3.6667       PFind                   None            0.00    0.00    None
 18.2800         4.8492           0.0000          0.0000            21.67         3.58          0.0800            0.0000           0.4333       PFind                   None            0.00    0.00    None
 19.2800         4.5999           0.0000          0.0000            28.33         4.68          0.0400            0.0000           0.0000       PFind                   None            0.00    0.00    None
 19.9400         4.4491           0.0000          0.0000            21.67         3.58          0.0800            0.0000           0.0000       PFind                   None            0.00    0.00    None
 20.9200         4.2428           0.0000          0.0000            33.33         5.51          0.0200            0.0000           2.6667       PFind                   None            0.00    0.00    None
 23.3800         3.8017           0.0000          0.0000            20.00         3.31          0.0400            0.0000           1.2000       PFind                   None            0.00    0.00    None
 24.2000         3.6747           0.0000          0.0000            43.33         7.16          0.0200            0.0000           2.6000       PFind                   None            0.00    0.00    None
 25.5200         3.4875           0.0000          0.0000            41.67         6.89          0.0400            0.0000           6.6667       PFind                   None            0.00    0.00    None
 27.5000         3.2408           0.0000          0.0000            48.33         7.99          0.0600            0.0000           7.7333       PFind                   None            0.00    0.00    None
 28.6600         3.1122           0.0000          0.0000            50.83         8.40          0.1200            0.0000           7.1167       PFind                   None            0.00    0.00    None
 30.1600         2.9607           0.0000          0.0000            43.33         7.16          0.0400            0.0000           1.7333       PFind                   None            0.00    0.00    None
 31.0600         2.8769           0.0000          0.0000            27.50         4.55          0.0800            0.0000           0.5500       PFind                   None            0.00    0.00    None
 31.8400         2.8082           0.0000          0.0000            33.33         5.51          0.0800            0.0000           0.6667       PFind                   None            0.00    0.00    None
 32.9600         2.7153           0.0000          0.0000            32.50         5.37          0.0600            0.0000           2.6000       PFind                   None            0.00    0.00    None
 34.9200         2.5673           0.0000          0.0000            55.83         9.23          0.0800            0.0000           8.9333       PFind                   None            0.00    0.00    None
 36.3200         2.4715           0.0000          0.0000            75.00        12.40          0.0400            0.0000           1.5000       PFind                   None            0.00    0.00    None
 37.2000         2.4150           0.0000          0.0000            22.50         3.72          0.0800            0.0000           2.2500       PFind                   None            0.00    0.00    None
 38.7200         2.3236           0.0000          0.0000            23.33         3.86          0.1600            0.0000           0.9333       PFind                   None            0.00    0.00    None
 40.8800         2.2057           0.0000          0.0000            22.50         3.72          0.1200            0.0000           0.4500       PFind                   None            0.00    0.00    None
 42.9600         2.1036           0.0000          0.0000            31.67         5.23          0.1200            0.0000           0.6333       PFind                   None            0.00    0.00    None
 44.5400         2.0326           0.0000          0.0000           220.00        36.36          0.0800            0.0000          35.2000       PFind                   None            0.00    0.00    None
 49.4800         1.8406           0.0000          0.0000            22.50         3.72          0.0800            0.0000           0.0000       PFind                   None            0.00    0.00    None
 50.4400         1.8078           0.0000          0.0000            25.83         4.27          0.0800            0.0000           2.0667       PFind                   None            0.00    0.00    None
 54.2000         1.6909           0.0000          0.0000            26.67         4.41          0.1600            0.0000           1.0667       PFind                   None            0.00    0.00    None
 55.2600         1.6609           0.0000          0.0000            29.17         4.82          0.0400            0.0000           2.3333       PFind                   None            0.00    0.00    None
 58.4800         1.5769           0.0000          0.0000           145.83        24.10          0.0600            0.0000           2.9167       PFind                   None            0.00    0.00    None
 59.8800         1.5434           0.0000          0.0000           135.00        22.31          0.1600            0.0000          16.2000       PFind                   None            0.00    0.00    None
 60.7800         1.5226           0.0000          0.0000            31.67         5.23          0.1600            0.0000           1.9000       PFind                   None            0.00    0.00    None
 61.4800         1.5070           0.0000          0.0000            47.50         7.85          0.1000            0.0000           1.9000       PFind                   None            0.00    0.00    None
 64.1400         1.4507           0.0000          0.0000            34.17         5.65          0.0000            0.0000           0.6833       PFind                   None            0.00    0.00    None