File: Generating XRD fingerprints/INPUT/Detrital data/G84_pf_RT.txt
Filename:
	C:\Program Files\Thermo Electron\WinXRD\Datafiles\FIEN2\GEO\G84_RT.pk

File Created:
	February 25, 2021 - 10:03 AM

Specimen Id:
	G84_RT

Specimen Name:

Specimen Description:

Comment:
Scan Type: 2Theta Scan
Start Angle: 3 deg.
Stop Angle: 65 deg.
Num Points: 3101
Step Size: 0.02 deg.
Scan Rate: 1.000000
Scan Mode: Continuous
Wavelength: 1.540562
\Kalpha1: 1.540562	\Kalpha2: 1.544390	\Kbeta: 1.392218

Optics:
		Detector:
			 Type: Fixed Slits
		Tube:
			 Type: Fixed Slits

Datas:
Peaks:

Position        Dspace          ESD(P)          Corr.Fact       Intensity       Rel.Int.        FWHM(L)         ESD(L)          Area            Source                  Curve           Strain  CSize   CSize_Source
[deg]           [A]             [deg]           [deg]           [CPS]           [CPS]           [deg]           [deg]           [deg]           [--]                    [--]            [--]    [--]    [--]
  4.6800        18.8659           0.0000          0.0000            43.33         2.29          0.1600            0.0000           6.0667       PFind                   None            0.00    0.00    None
  5.2800        16.7233           0.0000          0.0000            57.50         3.04          0.0400            0.0000           8.0500       PFind                   None            0.00    0.00    None
  5.7200        15.4378           0.0000          0.0000            36.67         1.94          0.0200            0.0000           5.1333       PFind                   None            0.00    0.00    None
  6.3000        14.0178           0.0000          0.0000            54.17         2.86          0.1000            0.0000           3.2500       PFind                   None            0.00    0.00    None
  6.9000        12.8002           0.0000          0.0000            45.83         2.42          0.0800            0.0000           5.5000       PFind                   None            0.00    0.00    None
  7.6600        11.5318           0.0000          0.0000            40.00         2.11          0.0200            0.0000           4.8000       PFind                   None            0.00    0.00    None
  8.3400        10.5930           0.0000          0.0000            49.17         2.60          0.0000            0.0000           2.9500       PFind                   None            0.00    0.00    None
  9.3600         9.4408           0.0000          0.0000            37.50         1.98          0.1600            0.0000           3.7500       PFind                   None            0.00    0.00    None
  9.8800         8.9451           0.0000          0.0000            30.83         1.63          0.0600            0.0000           1.8500       PFind                   None            0.00    0.00    None
 10.8600         8.1400           0.0000          0.0000            33.33         1.76          0.1200            0.0000           0.0000       PFind                   None            0.00    0.00    None
 11.7000         7.5574           0.0000          0.0000            31.67         1.67          0.1000            0.0000           0.6333       PFind                   None            0.00    0.00    None
 12.7000         6.9645           0.0000          0.0000            32.50         1.72          0.1600            0.0000           3.2500       PFind                   None            0.00    0.00    None
 13.3200         6.6417           0.0000          0.0000            26.67         1.41          0.1600            0.0000           0.5333       PFind                   None            0.00    0.00    None
 13.7400         6.4396           0.0000          0.0000            60.00         3.17          0.0800            0.0000           4.8000       PFind                   None            0.00    0.00    None
 14.6200         6.0539           0.0000          0.0000            28.33         1.50          0.0800            0.0000           0.5667       PFind                   None            0.00    0.00    None
 15.9600         5.5485           0.0000          0.0000            27.50         1.45          0.0400            0.0000           0.5500       PFind                   None            0.00    0.00    None
 16.9200         5.2358           0.0000          0.0000            25.00         1.32          0.0400            0.0000           0.0000       PFind                   None            0.00    0.00    None
 18.7000         4.7412           0.0000          0.0000            45.83         2.42          0.1600            0.0000           4.5833       PFind                   None            0.00    0.00    None
 20.0600         4.4227           0.0000          0.0000            29.17         1.54          0.0200            0.0000           1.7500       PFind                   None            0.00    0.00    None
 21.9400         4.0478           0.0000          0.0000           200.00        10.57          0.0600            0.0000          12.0000       PFind                   None            0.00    0.00    None
 23.4000         3.7985           0.0000          0.0000           133.33         7.05          0.0000            0.0000          13.3333       PFind                   None            0.00    0.00    None
 24.7000         3.6014           0.0000          0.0000            37.50         1.98          0.1000            0.0000           1.5000       PFind                   None            0.00    0.00    None
 25.4600         3.4956           0.0000          0.0000            95.83         5.06          0.0400            0.0000          15.3333       PFind                   None            0.00    0.00    None
 27.8000         3.2065           0.0000          0.0000          1410.00        74.50          0.0000            0.0000          56.4000       PFind                   None            0.00    0.00    None
 28.5200         3.1271           0.0000          0.0000            41.67         2.20          0.1600            0.0000           6.6667       PFind                   None            0.00    0.00    None
 29.7600         2.9996           0.0000          0.0000            80.00         4.23          0.1000            0.0000          12.8000       PFind                   None            0.00    0.00    None
 30.7200         2.9080           0.0000          0.0000            40.83         2.16          0.0400            0.0000           5.7167       PFind                   None            0.00    0.00    None
 31.7600         2.8151           0.0000          0.0000            73.33         3.87          0.0000            0.0000           1.4667       PFind                   None            0.00    0.00    None
 33.0200         2.7105           0.0000          0.0000            34.17         1.81          0.0800            0.0000           2.7333       PFind                   None            0.00    0.00    None
 34.4000         2.6049           0.0000          0.0000            67.50         3.57          0.0400            0.0000          10.8000       PFind                   None            0.00    0.00    None
 35.2000         2.5475           0.0000          0.0000            46.67         2.47          0.1000            0.0000           0.9333       PFind                   None            0.00    0.00    None
 37.1800         2.4162           0.0000          0.0000            34.17         1.81          0.0400            0.0000           1.3667       PFind                   None            0.00    0.00    None
 38.5000         2.3364           0.0000          0.0000            30.83         1.63          0.0400            0.0000           0.6167       PFind                   None            0.00    0.00    None
 39.6200         2.2729           0.0000          0.0000           191.67        10.13          0.1000            0.0000           7.6667       PFind                   None            0.00    0.00    None
 41.1000         2.1944           0.0000          0.0000            45.83         2.42          0.0200            0.0000           4.5833       PFind                   None            0.00    0.00    None
 42.7000         2.1158           0.0000          0.0000            25.00         1.32          0.1000            0.0000           1.0000       PFind                   None            0.00    0.00    None
 44.4000         2.0386           0.0000          0.0000           258.33        13.65          0.1400            0.0000          41.3333       PFind                   None            0.00    0.00    None
 45.6600         1.9853           0.0000          0.0000            95.00         5.02          0.0600            0.0000           7.6000       PFind                   None            0.00    0.00    None
 48.1000         1.8901           0.0000          0.0000            63.33         3.35          0.0200            0.0000           3.8000       PFind                   None            0.00    0.00    None
 51.0400         1.7879           0.0000          0.0000            74.17         3.92          0.0800            0.0000           5.9333       PFind                   None            0.00    0.00    None
 53.1200         1.7227           0.0000          0.0000            25.83         1.37          0.1600            0.0000           0.5167       PFind                   None            0.00    0.00    None
 54.8800         1.6715           0.0000          0.0000            50.00         2.64          0.0600            0.0000           4.0000       PFind                   None            0.00    0.00    None
 55.7600         1.6472           0.0000          0.0000            35.83         1.89          0.1600            0.0000           2.8667       PFind                   None            0.00    0.00    None
 57.6600         1.5974           0.0000          0.0000            30.83         1.63          0.0800            0.0000           0.6167       PFind                   None            0.00    0.00    None
 59.8400         1.5443           0.0000          0.0000           220.00        11.62          0.1400            0.0000          26.4000       PFind                   None            0.00    0.00    None
 60.5800         1.5272           0.0000          0.0000            35.00         1.85          0.1600            0.0000           2.1000       PFind                   None            0.00    0.00    None
 61.4800         1.5070           0.0000          0.0000            49.17         2.60          0.1000            0.0000           7.8667       PFind                   None            0.00    0.00    None
 63.2200         1.4696           0.0000          0.0000            26.67         1.41          0.1200            0.0000           0.5333       PFind                   None            0.00    0.00    None
 64.6400         1.4407           0.0000          0.0000            25.00         1.32          0.0200            0.0000           1.0000       PFind                   None            0.00    0.00    None