File: Generating XRD fingerprints/INPUT/Detrital data/G88_pf_RT.txt
Filename:
	C:\Program Files\Thermo Electron\WinXRD\Datafiles\FIEN2\GEO\G88_RT.pk

File Created:
	February 25, 2021 - 10:04 AM

Specimen Id:
	G88_RT

Specimen Name:

Specimen Description:

Comment:
Scan Type: 2Theta Scan
Start Angle: 3 deg.
Stop Angle: 65 deg.
Num Points: 3101
Step Size: 0.02 deg.
Scan Rate: 1.000000
Scan Mode: Continuous
Wavelength: 1.540562
\Kalpha1: 1.540562	\Kalpha2: 1.544390	\Kbeta: 1.392218

Optics:
		Detector:
			 Type: Fixed Slits
		Tube:
			 Type: Fixed Slits

Datas:
Peaks:

Position        Dspace          ESD(P)          Corr.Fact       Intensity       Rel.Int.        FWHM(L)         ESD(L)          Area            Source                  Curve           Strain  CSize   CSize_Source
[deg]           [A]             [deg]           [deg]           [CPS]           [CPS]           [deg]           [deg]           [deg]           [--]                    [--]            [--]    [--]    [--]
  4.7000        18.7856           0.0000          0.0000            46.67         3.10          0.1000            0.0000           2.8000       PFind                   None            0.00    0.00    None
  5.3000        16.6602           0.0000          0.0000            59.17         3.93          0.0800            0.0000           1.1833       PFind                   None            0.00    0.00    None
  6.1400        14.3827           0.0000          0.0000            69.17         4.59          0.1200            0.0000          11.0667       PFind                   None            0.00    0.00    None
  6.6000        13.3813           0.0000          0.0000            42.50         2.82          0.0200            0.0000           5.1000       PFind                   None            0.00    0.00    None
  7.2000        12.2675           0.0000          0.0000            48.33         3.21          0.0600            0.0000           2.9000       PFind                   None            0.00    0.00    None
  7.7800        11.3542           0.0000          0.0000            30.83         2.05          0.0400            0.0000           2.4667       PFind                   None            0.00    0.00    None
  8.8200        10.0176           0.0000          0.0000           178.33        11.84          0.0000            0.0000          17.8333       PFind                   None            0.00    0.00    None
  9.4600         9.3412           0.0000          0.0000            43.33         2.88          0.0600            0.0000           0.8667       PFind                   None            0.00    0.00    None
 10.2800         8.5979           0.0000          0.0000            22.50         1.49          0.1600            0.0000           1.8000       PFind                   None            0.00    0.00    None
 11.0200         8.0221           0.0000          0.0000            36.67         2.43          0.1200            0.0000           2.2000       PFind                   None            0.00    0.00    None
 11.5800         7.6354           0.0000          0.0000            25.00         1.66          0.1000            0.0000           1.0000       PFind                   None            0.00    0.00    None
 12.7000         6.9645           0.0000          0.0000            33.33         2.21          0.0400            0.0000           0.0000       PFind                   None            0.00    0.00    None
 13.1800         6.7119           0.0000          0.0000            30.00         1.99          0.1000            0.0000           0.6000       PFind                   None            0.00    0.00    None
 14.0400         6.3026           0.0000          0.0000            25.00         1.66          0.0400            0.0000           0.0000       PFind                   None            0.00    0.00    None
 14.9800         5.9092           0.0000          0.0000            25.83         1.71          0.1000            0.0000           3.6167       PFind                   None            0.00    0.00    None
 15.7600         5.6184           0.0000          0.0000            26.67         1.77          0.1400            0.0000           2.1333       PFind                   None            0.00    0.00    None
 16.6600         5.3169           0.0000          0.0000            26.67         1.77          0.1600            0.0000           0.0000       PFind                   None            0.00    0.00    None
 17.2200         5.1452           0.0000          0.0000            29.17         1.94          0.0600            0.0000           0.5833       PFind                   None            0.00    0.00    None
 18.1600         4.8810           0.0000          0.0000            26.67         1.77          0.1600            0.0000           0.5333       PFind                   None            0.00    0.00    None
 19.5200         4.5439           0.0000          0.0000            22.50         1.49          0.0000            0.0000           3.6000       PFind                   None            0.00    0.00    None
 20.8000         4.2670           0.0000          0.0000           237.50        15.76          0.0800            0.0000          23.7500       PFind                   None            0.00    0.00    None
 21.9600         4.0442           0.0000          0.0000           113.33         7.52          0.1200            0.0000           6.8000       PFind                   None            0.00    0.00    None
 22.9800         3.8669           0.0000          0.0000            47.50         3.15          0.0200            0.0000           6.6500       PFind                   None            0.00    0.00    None
 23.7800         3.7386           0.0000          0.0000            34.17         2.27          0.1000            0.0000           0.0000       PFind                   None            0.00    0.00    None
 24.8000         3.5871           0.0000          0.0000            29.17         1.94          0.1600            0.0000           0.0000       PFind                   None            0.00    0.00    None
 26.5600         3.3533           0.0000          0.0000          1506.67       100.00          0.0600            0.0000         150.6667       PFind                   None            0.00    0.00    None
 27.8400         3.2019           0.0000          0.0000           185.83        12.33          0.0200            0.0000          29.7333       PFind                   None            0.00    0.00    None
 28.8800         3.0890           0.0000          0.0000            35.00         2.32          0.1200            0.0000           0.7000       PFind                   None            0.00    0.00    None
 30.7800         2.9025           0.0000          0.0000            93.33         6.19          0.0400            0.0000           7.4667       PFind                   None            0.00    0.00    None
 32.3400         2.7659           0.0000          0.0000            23.33         1.55          0.0000            0.0000           0.0000       PFind                   None            0.00    0.00    None
 34.2400         2.6167           0.0000          0.0000            26.67         1.77          0.1600            0.0000           0.0000       PFind                   None            0.00    0.00    None
 35.4600         2.5294           0.0000          0.0000            75.00         4.98          0.1000            0.0000          12.0000       PFind                   None            0.00    0.00    None
 37.5000         2.3963           0.0000          0.0000            53.33         3.54          0.0000            0.0000           8.5333       PFind                   None            0.00    0.00    None
 39.3800         2.2862           0.0000          0.0000            92.50         6.14          0.0600            0.0000           7.4000       PFind                   None            0.00    0.00    None
 41.1800         2.1903           0.0000          0.0000            25.00         1.66          0.0800            0.0000           0.5000       PFind                   None            0.00    0.00    None
 42.9600         2.1036           0.0000          0.0000            30.00         1.99          0.0800            0.0000           4.8000       PFind                   None            0.00    0.00    None
 44.8400         2.0197           0.0000          0.0000            26.67         1.77          0.0400            0.0000           2.1333       PFind                   None            0.00    0.00    None
 45.4600         1.9935           0.0000          0.0000            66.67         4.42          0.0200            0.0000           9.3333       PFind                   None            0.00    0.00    None
 47.0600         1.9294           0.0000          0.0000            35.83         2.38          0.0200            0.0000           3.5833       PFind                   None            0.00    0.00    None
 48.3000         1.8827           0.0000          0.0000            26.67         1.77          0.0600            0.0000           1.0667       PFind                   None            0.00    0.00    None
 50.8400         1.7945           0.0000          0.0000            31.67         2.10          0.1400            0.0000           1.2667       PFind                   None            0.00    0.00    None
 52.2200         1.7503           0.0000          0.0000            35.00         2.32          0.0000            0.0000           2.8000       PFind                   None            0.00    0.00    None
 54.5400         1.6812           0.0000          0.0000            22.50         1.49          0.0200            0.0000           0.9000       PFind                   None            0.00    0.00    None
 55.3400         1.6587           0.0000          0.0000            25.83         1.71          0.0200            0.0000           0.0000       PFind                   None            0.00    0.00    None
 56.6400         1.6237           0.0000          0.0000            21.67         1.44          0.0000            0.0000           0.4333       PFind                   None            0.00    0.00    None
 60.3000         1.5336           0.0000          0.0000            21.67         1.44          0.1200            0.0000           0.8667       PFind                   None            0.00    0.00    None
 61.3600         1.5096           0.0000          0.0000            44.17         2.93          0.0000            0.0000           5.3000       PFind                   None            0.00    0.00    None
 62.1200         1.4930           0.0000          0.0000            21.67         1.44          0.0400            0.0000           0.0000       PFind                   None            0.00    0.00    None
 63.9400         1.4548           0.0000          0.0000            38.33         2.54          0.0800            0.0000           6.1333       PFind                   None            0.00    0.00    None
 64.1400         1.4507           0.0000          0.0000            29.17         1.94          0.0800            0.0000           1.7500       PFind                   None            0.00    0.00    None