File: Generating XRD fingerprints/INPUT/Detrital data/G89_pf_RT.txt
Filename:
	C:\Program Files\Thermo Electron\WinXRD\Datafiles\FIEN2\GEO\G89_RT.pk

File Created:
	February 25, 2021 - 10:05 AM

Specimen Id:
	G89_RT

Specimen Name:

Specimen Description:

Comment:
Scan Type: 2Theta Scan
Start Angle: 3 deg.
Stop Angle: 65 deg.
Num Points: 3101
Step Size: 0.02 deg.
Scan Rate: 1.000000
Scan Mode: Continuous
Wavelength: 1.540562
\Kalpha1: 1.540562	\Kalpha2: 1.544390	\Kbeta: 1.392218

Optics:
		Detector:
			 Type: Fixed Slits
		Tube:
			 Type: Fixed Slits

Datas:
Peaks:

Position        Dspace          ESD(P)          Corr.Fact       Intensity       Rel.Int.        FWHM(L)         ESD(L)          Area            Source                  Curve           Strain  CSize   CSize_Source
[deg]           [A]             [deg]           [deg]           [CPS]           [CPS]           [deg]           [deg]           [deg]           [--]                    [--]            [--]    [--]    [--]
  4.7200        18.7061           0.0000          0.0000            60.00         1.30          0.0800            0.0000           4.8000       PFind                   None            0.00    0.00    None
  5.5200        15.9967           0.0000          0.0000            59.17         1.28          0.1400            0.0000           0.0000       PFind                   None            0.00    0.00    None
  6.1800        14.2897           0.0000          0.0000           157.50         3.41          0.0400            0.0000          12.6000       PFind                   None            0.00    0.00    None
  6.8200        12.9501           0.0000          0.0000            30.00         0.65          0.0400            0.0000           2.4000       PFind                   None            0.00    0.00    None
  7.5200        11.7462           0.0000          0.0000            31.67         0.69          0.0400            0.0000           1.9000       PFind                   None            0.00    0.00    None
  8.1400        10.8528           0.0000          0.0000            53.33         1.16          0.1000            0.0000           2.1333       PFind                   None            0.00    0.00    None
  9.4800         9.3216           0.0000          0.0000            40.00         0.87          0.0800            0.0000           0.8000       PFind                   None            0.00    0.00    None
 10.0600         8.7854           0.0000          0.0000            34.17         0.74          0.0600            0.0000           2.0500       PFind                   None            0.00    0.00    None
 10.5800         8.3547           0.0000          0.0000            30.00         0.65          0.1200            0.0000           0.6000       PFind                   None            0.00    0.00    None
 11.6000         7.6223           0.0000          0.0000            35.00         0.76          0.1400            0.0000           2.1000       PFind                   None            0.00    0.00    None
 12.1200         7.2964           0.0000          0.0000           110.83         2.40          0.1000            0.0000           6.6500       PFind                   None            0.00    0.00    None
 13.2800         6.6616           0.0000          0.0000            34.17         0.74          0.0800            0.0000           2.0500       PFind                   None            0.00    0.00    None
 13.9800         6.3295           0.0000          0.0000            45.00         0.98          0.1400            0.0000           0.9000       PFind                   None            0.00    0.00    None
 15.4800         5.7194           0.0000          0.0000            35.83         0.78          0.1200            0.0000           0.7167       PFind                   None            0.00    0.00    None
 16.3800         5.4071           0.0000          0.0000            31.67         0.69          0.0200            0.0000           2.5333       PFind                   None            0.00    0.00    None
 18.3600         4.8282           0.0000          0.0000            38.33         0.83          0.0800            0.0000           2.3000       PFind                   None            0.00    0.00    None
 19.8400         4.4713           0.0000          0.0000            45.83         0.99          0.1000            0.0000           5.5000       PFind                   None            0.00    0.00    None
 21.9600         4.0442           0.0000          0.0000           153.33         3.32          0.0800            0.0000          15.3333       PFind                   None            0.00    0.00    None
 23.4800         3.7857           0.0000          0.0000            95.00         2.06          0.0600            0.0000           7.6000       PFind                   None            0.00    0.00    None
 24.2000         3.6747           0.0000          0.0000            90.00         1.95          0.0400            0.0000          12.6000       PFind                   None            0.00    0.00    None
 25.4400         3.4983           0.0000          0.0000           141.67         3.07          0.0800            0.0000          14.1667       PFind                   None            0.00    0.00    None
 26.8000         3.3238           0.0000          0.0000          1185.00        25.68          0.0400            0.0000         165.9000       PFind                   None            0.00    0.00    None
 27.8200         3.2042           0.0000          0.0000           466.67        10.11          0.0600            0.0000          74.6667       PFind                   None            0.00    0.00    None
 28.8600         3.0911           0.0000          0.0000            30.00         0.65          0.1000            0.0000           2.4000       PFind                   None            0.00    0.00    None
 30.4000         2.9379           0.0000          0.0000            98.33         2.13          0.0000            0.0000           9.8333       PFind                   None            0.00    0.00    None
 31.5600         2.8325           0.0000          0.0000            73.33         1.59          0.0600            0.0000           7.3333       PFind                   None            0.00    0.00    None
 34.5200         2.5961           0.0000          0.0000            39.17         0.85          0.1400            0.0000           3.9167       PFind                   None            0.00    0.00    None
 35.7200         2.5116           0.0000          0.0000            36.67         0.79          0.1600            0.0000           2.2000       PFind                   None            0.00    0.00    None
 37.3200         2.4075           0.0000          0.0000            41.67         0.90          0.0400            0.0000           6.6667       PFind                   None            0.00    0.00    None
 39.3800         2.2862           0.0000          0.0000           244.17         5.29          0.0800            0.0000          14.6500       PFind                   None            0.00    0.00    None
 42.7400         2.1139           0.0000          0.0000            30.83         0.67          0.1200            0.0000           1.8500       PFind                   None            0.00    0.00    None
 43.4800         2.0796           0.0000          0.0000           195.00         4.23          0.0200            0.0000          31.2000       PFind                   None            0.00    0.00    None
 46.0200         1.9706           0.0000          0.0000            37.50         0.81          0.0600            0.0000           4.5000       PFind                   None            0.00    0.00    None
 48.1800         1.8872           0.0000          0.0000            30.83         0.67          0.0600            0.0000           4.3167       PFind                   None            0.00    0.00    None
 50.5400         1.8044           0.0000          0.0000           208.33         4.51          0.0400            0.0000          12.5000       PFind                   None            0.00    0.00    None
 51.2000         1.7827           0.0000          0.0000            85.00         1.84          0.0000            0.0000           6.8000       PFind                   None            0.00    0.00    None
 52.4200         1.7440           0.0000          0.0000            39.17         0.85          0.1600            0.0000           0.7833       PFind                   None            0.00    0.00    None
 54.2600         1.6892           0.0000          0.0000            40.00         0.87          0.0600            0.0000           1.6000       PFind                   None            0.00    0.00    None
 55.2800         1.6604           0.0000          0.0000            55.00         1.19          0.1000            0.0000           5.5000       PFind                   None            0.00    0.00    None
 55.8400         1.6451           0.0000          0.0000            85.00         1.84          0.0800            0.0000           5.1000       PFind                   None            0.00    0.00    None
 58.8000         1.5691           0.0000          0.0000            42.50         0.92          0.1000            0.0000           0.0000       PFind                   None            0.00    0.00    None
 60.8000         1.5222           0.0000          0.0000            36.67         0.79          0.1600            0.0000           1.4667       PFind                   None            0.00    0.00    None
 63.9600         1.4544           0.0000          0.0000            68.33         1.48          0.0200            0.0000           8.2000       PFind                   None            0.00    0.00    None
 64.1000         1.4516           0.0000          0.0000            45.00         0.98          0.1200            0.0000           6.3000       PFind                   None            0.00    0.00    None