File: Generating XRD fingerprints/INPUT/Detrital data/GG_11B_pf_SFT.txt
Filename:
	C:\Program Files\Thermo Electron\WinXRD\Datafiles\FIEN2\GEO\GG_11B_SFT.pk

File Created:
	February 25, 2021 - 10:22 AM

Specimen Id:
	GG_11B_SFT

Specimen Name:

Specimen Description:

Comment:
Scan Type: 2Theta Scan
Start Angle: 3 deg.
Stop Angle: 65 deg.
Num Points: 3101
Step Size: 0.02 deg.
Scan Rate: 1.000000
Scan Mode: Continuous
Wavelength: 1.540562
\Kalpha1: 1.540562	\Kalpha2: 1.544390	\Kbeta: 1.392218

Optics:
		Detector:
			 Type: Fixed Slits
		Tube:
			 Type: Fixed Slits

Datas:
Peaks:

Position        Dspace          ESD(P)          Corr.Fact       Intensity       Rel.Int.        FWHM(L)         ESD(L)          Area            Source                  Curve           Strain  CSize   CSize_Source
[deg]           [A]             [deg]           [deg]           [CPS]           [CPS]           [deg]           [deg]           [deg]           [--]                    [--]            [--]    [--]    [--]
  4.7600        18.5490           0.0000          0.0000            55.83         0.81          0.1600            0.0000           3.3500       PFind                   None            0.00    0.00    None
  5.3600        16.4739           0.0000          0.0000            41.67         0.61          0.0000            0.0000           2.5000       PFind                   None            0.00    0.00    None
  6.8400        12.9123           0.0000          0.0000            87.50         1.27          0.0000            0.0000          14.0000       PFind                   None            0.00    0.00    None
  7.5600        11.6841           0.0000          0.0000            69.17         1.00          0.1200            0.0000           1.3833       PFind                   None            0.00    0.00    None
  8.9400         9.8834           0.0000          0.0000          1064.17        15.46          0.0200            0.0000         127.7000       PFind                   None            0.00    0.00    None
 10.2200         8.6482           0.0000          0.0000            38.33         0.56          0.0600            0.0000           0.0000       PFind                   None            0.00    0.00    None
 11.2600         7.8517           0.0000          0.0000            22.50         0.33          0.0600            0.0000           0.0000       PFind                   None            0.00    0.00    None
 13.0600         6.7733           0.0000          0.0000            35.83         0.52          0.1000            0.0000           1.4333       PFind                   None            0.00    0.00    None
 13.9400         6.3476           0.0000          0.0000            39.17         0.57          0.0800            0.0000           6.2667       PFind                   None            0.00    0.00    None
 14.7800         5.9887           0.0000          0.0000            25.00         0.36          0.0400            0.0000           0.5000       PFind                   None            0.00    0.00    None
 15.5400         5.6975           0.0000          0.0000            26.67         0.39          0.0400            0.0000           0.5333       PFind                   None            0.00    0.00    None
 16.3200         5.4269           0.0000          0.0000            21.67         0.31          0.0000            0.0000           1.3000       PFind                   None            0.00    0.00    None
 16.9800         5.2174           0.0000          0.0000            18.33         0.27          0.0800            0.0000           0.0000       PFind                   None            0.00    0.00    None
 18.8400         4.7063           0.0000          0.0000           370.00         5.37          0.0600            0.0000          51.8000       PFind                   None            0.00    0.00    None
 19.8400         4.4713           0.0000          0.0000            30.83         0.45          0.1200            0.0000           1.8500       PFind                   None            0.00    0.00    None
 20.9400         4.2388           0.0000          0.0000            73.33         1.07          0.0000            0.0000           8.8000       PFind                   None            0.00    0.00    None
 21.9000         4.0551           0.0000          0.0000            20.00         0.29          0.0200            0.0000           0.0000       PFind                   None            0.00    0.00    None
 23.1400         3.8406           0.0000          0.0000            20.83         0.30          0.1200            0.0000           1.2500       PFind                   None            0.00    0.00    None
 25.6800         3.4662           0.0000          0.0000            44.17         0.64          0.0000            0.0000           4.4167       PFind                   None            0.00    0.00    None
 27.4000         3.2524           0.0000          0.0000            24.17         0.35          0.0800            0.0000           0.9667       PFind                   None            0.00    0.00    None
 29.1400         3.0620           0.0000          0.0000            16.67         0.24          0.0200            0.0000           0.3333       PFind                   None            0.00    0.00    None
 30.5200         2.9266           0.0000          0.0000            27.50         0.40          0.0000            0.0000           0.0000       PFind                   None            0.00    0.00    None
 31.9400         2.7997           0.0000          0.0000            25.83         0.38          0.0200            0.0000           2.5833       PFind                   None            0.00    0.00    None
 32.8000         2.7282           0.0000          0.0000            17.50         0.25          0.1200            0.0000           0.3500       PFind                   None            0.00    0.00    None
 34.1200         2.6256           0.0000          0.0000            15.83         0.23          0.0200            0.0000           0.9500       PFind                   None            0.00    0.00    None
 35.5800         2.5211           0.0000          0.0000            22.50         0.33          0.0200            0.0000           3.1500       PFind                   None            0.00    0.00    None
 36.5400         2.4571           0.0000          0.0000           115.00         1.67          0.1200            0.0000           6.9000       PFind                   None            0.00    0.00    None
 37.4800         2.3976           0.0000          0.0000            25.83         0.38          0.1400            0.0000           2.0667       PFind                   None            0.00    0.00    None
 39.5600         2.2762           0.0000          0.0000            20.83         0.30          0.0600            0.0000           0.0000       PFind                   None            0.00    0.00    None
 41.0000         2.1995           0.0000          0.0000            15.83         0.23          0.0400            0.0000           0.0000       PFind                   None            0.00    0.00    None
 42.4600         2.1272           0.0000          0.0000            53.33         0.77          0.0000            0.0000           4.2667       PFind                   None            0.00    0.00    None
 44.9600         2.0145           0.0000          0.0000            36.67         0.53          0.0200            0.0000           4.4000       PFind                   None            0.00    0.00    None
 48.0400         1.8923           0.0000          0.0000            16.67         0.24          0.0800            0.0000           1.6667       PFind                   None            0.00    0.00    None
 50.6800         1.7998           0.0000          0.0000            16.67         0.24          0.1400            0.0000           2.0000       PFind                   None            0.00    0.00    None
 55.8600         1.6445           0.0000          0.0000            18.33         0.27          0.0000            0.0000           0.7333       PFind                   None            0.00    0.00    None
 60.0200         1.5401           0.0000          0.0000            21.67         0.31          0.0800            0.0000           1.7333       PFind                   None            0.00    0.00    None
 62.1800         1.4917           0.0000          0.0000            15.83         0.23          0.0800            0.0000           0.3167       PFind                   None            0.00    0.00    None
 64.6600         1.4403           0.0000          0.0000          1090.83        15.84          0.0400            0.0000          65.4500       PFind                   None            0.00    0.00    None