File: Generating XRD fingerprints/INPUT/Detrital data/GG_11A_pf_SFT.txt
Filename:
	C:\Program Files\Thermo Electron\WinXRD\Datafiles\FIEN2\GEO\GG_11A_SFT.pk

File Created:
	February 25, 2021 - 10:21 AM

Specimen Id:
	GG_11A_SFT

Specimen Name:

Specimen Description:

Comment:
Scan Type: 2Theta Scan
Start Angle: 3 deg.
Stop Angle: 65 deg.
Num Points: 3101
Step Size: 0.02 deg.
Scan Rate: 1.000000
Scan Mode: Continuous
Wavelength: 1.540562
\Kalpha1: 1.540562	\Kalpha2: 1.544390	\Kbeta: 1.392218

Optics:
		Detector:
			 Type: Fixed Slits
		Tube:
			 Type: Fixed Slits

Datas:
Peaks:

Position        Dspace          ESD(P)          Corr.Fact       Intensity       Rel.Int.        FWHM(L)         ESD(L)          Area            Source                  Curve           Strain  CSize   CSize_Source
[deg]           [A]             [deg]           [deg]           [CPS]           [CPS]           [deg]           [deg]           [deg]           [--]                    [--]            [--]    [--]    [--]
  4.7000        18.7856           0.0000          0.0000            40.83         1.51          0.0800            0.0000           3.2667       PFind                   None            0.00    0.00    None
  5.4600        16.1724           0.0000          0.0000            25.83         0.95          0.0800            0.0000           1.0333       PFind                   None            0.00    0.00    None
  6.2800        14.0624           0.0000          0.0000           610.83        22.57          0.0800            0.0000          97.7333       PFind                   None            0.00    0.00    None
  7.3800        11.9687           0.0000          0.0000            55.00         2.03          0.0400            0.0000           4.4000       PFind                   None            0.00    0.00    None
  8.0600        10.9604           0.0000          0.0000            53.33         1.97          0.0200            0.0000           0.0000       PFind                   None            0.00    0.00    None
 10.2600         8.6146           0.0000          0.0000            23.33         0.86          0.0800            0.0000           0.0000       PFind                   None            0.00    0.00    None
 11.4800         7.7017           0.0000          0.0000            25.00         0.92          0.0600            0.0000           1.5000       PFind                   None            0.00    0.00    None
 13.1600         6.7220           0.0000          0.0000            32.50         1.20          0.1400            0.0000           1.3000       PFind                   None            0.00    0.00    None
 13.9800         6.3295           0.0000          0.0000            64.17         2.37          0.0200            0.0000           7.7000       PFind                   None            0.00    0.00    None
 15.2000         5.8241           0.0000          0.0000            27.50         1.02          0.1400            0.0000           0.0000       PFind                   None            0.00    0.00    None
 16.1800         5.4735           0.0000          0.0000            24.17         0.89          0.0200            0.0000           0.9667       PFind                   None            0.00    0.00    None
 17.4800         5.0693           0.0000          0.0000            21.67         0.80          0.1200            0.0000           0.0000       PFind                   None            0.00    0.00    None
 20.1400         4.4054           0.0000          0.0000            34.17         1.26          0.1600            0.0000           0.0000       PFind                   None            0.00    0.00    None
 21.2800         4.1719           0.0000          0.0000            30.00         1.11          0.1200            0.0000           1.2000       PFind                   None            0.00    0.00    None
 22.1600         4.0081           0.0000          0.0000           116.67         4.31          0.0000            0.0000          18.6667       PFind                   None            0.00    0.00    None
 23.1200         3.8438           0.0000          0.0000            30.00         1.11          0.0600            0.0000           2.4000       PFind                   None            0.00    0.00    None
 25.2400         3.5256           0.0000          0.0000           826.67        30.54          0.1600            0.0000         132.2667       PFind                   None            0.00    0.00    None
 28.0200         3.1818           0.0000          0.0000           382.50        14.13          0.0800            0.0000          61.2000       PFind                   None            0.00    0.00    None
 30.3000         2.9474           0.0000          0.0000            45.00         1.66          0.1400            0.0000           3.6000       PFind                   None            0.00    0.00    None
 31.6800         2.8220           0.0000          0.0000           147.50         5.45          0.0000            0.0000          23.6000       PFind                   None            0.00    0.00    None
 33.2600         2.6915           0.0000          0.0000            35.00         1.29          0.1600            0.0000           4.2000       PFind                   None            0.00    0.00    None
 34.2600         2.6152           0.0000          0.0000            21.67         0.80          0.0600            0.0000           0.0000       PFind                   None            0.00    0.00    None
 35.4000         2.5335           0.0000          0.0000            40.83         1.51          0.0400            0.0000           1.6333       PFind                   None            0.00    0.00    None
 36.9000         2.4339           0.0000          0.0000            35.83         1.32          0.0800            0.0000           0.0000       PFind                   None            0.00    0.00    None
 38.2400         2.3517           0.0000          0.0000          2706.67       100.00          0.0800            0.0000         433.0667       PFind                   None            0.00    0.00    None
 39.7000         2.2685           0.0000          0.0000            26.67         0.99          0.0000            0.0000           2.6667       PFind                   None            0.00    0.00    None
 40.3800         2.2318           0.0000          0.0000            26.67         0.99          0.1400            0.0000           2.6667       PFind                   None            0.00    0.00    None
 41.8600         2.1563           0.0000          0.0000            56.67         2.09          0.0400            0.0000           5.6667       PFind                   None            0.00    0.00    None
 43.6400         2.0724           0.0000          0.0000            19.17         0.71          0.0200            0.0000           0.7667       PFind                   None            0.00    0.00    None
 45.1800         2.0052           0.0000          0.0000            31.67         1.17          0.1600            0.0000           3.1667       PFind                   None            0.00    0.00    None
 46.5200         1.9506           0.0000          0.0000            18.33         0.68          0.1000            0.0000           0.3667       PFind                   None            0.00    0.00    None
 47.9400         1.8960           0.0000          0.0000            17.50         0.65          0.0800            0.0000           0.3500       PFind                   None            0.00    0.00    None
 48.7800         1.8653           0.0000          0.0000            19.17         0.71          0.0600            0.0000           0.0000       PFind                   None            0.00    0.00    None
 50.6800         1.7998           0.0000          0.0000            37.50         1.39          0.1600            0.0000           3.0000       PFind                   None            0.00    0.00    None
 52.7000         1.7354           0.0000          0.0000            24.17         0.89          0.0600            0.0000           1.4500       PFind                   None            0.00    0.00    None
 54.9600         1.6693           0.0000          0.0000            28.33         1.05          0.0800            0.0000           2.8333       PFind                   None            0.00    0.00    None
 55.9800         1.6413           0.0000          0.0000            25.00         0.92          0.1600            0.0000           2.0000       PFind                   None            0.00    0.00    None
 58.4600         1.5774           0.0000          0.0000            18.33         0.68          0.1000            0.0000           0.0000       PFind                   None            0.00    0.00    None
 60.0600         1.5392           0.0000          0.0000            51.67         1.91          0.0000            0.0000           5.1667       PFind                   None            0.00    0.00    None
 61.6000         1.5043           0.0000          0.0000            36.67         1.35          0.1600            0.0000           3.6667       PFind                   None            0.00    0.00    None
 64.5200         1.4431           0.0000          0.0000          1290.83        47.69          0.0400            0.0000         103.2667       PFind                   None            0.00    0.00    None
 64.7000         1.4395           0.0000          0.0000           648.33        23.95          0.0800            0.0000          51.8667       PFind                   None            0.00    0.00    None