File: Generating XRD fingerprints/INPUT/Detrital data/GG_13_pf_SFT.txt
Filename:
	C:\Program Files\Thermo Electron\WinXRD\Datafiles\FIEN2\GEO\GG_13_SFT.pk

File Created:
	February 25, 2021 - 10:23 AM

Specimen Id:
	GG_13_SFT

Specimen Name:

Specimen Description:

Comment:
Scan Type: 2Theta Scan
Start Angle: 3 deg.
Stop Angle: 65 deg.
Num Points: 3101
Step Size: 0.02 deg.
Scan Rate: 1.000000
Scan Mode: Continuous
Wavelength: 1.540562
\Kalpha1: 1.540562	\Kalpha2: 1.544390	\Kbeta: 1.392218

Optics:
		Detector:
			 Type: Fixed Slits
		Tube:
			 Type: Fixed Slits

Datas:
Peaks:

Position        Dspace          ESD(P)          Corr.Fact       Intensity       Rel.Int.        FWHM(L)         ESD(L)          Area            Source                  Curve           Strain  CSize   CSize_Source
[deg]           [A]             [deg]           [deg]           [CPS]           [CPS]           [deg]           [deg]           [deg]           [--]                    [--]            [--]    [--]    [--]
  4.6800        18.8659           0.0000          0.0000            62.50         1.88          0.1400            0.0000           2.5000       PFind                   None            0.00    0.00    None
  5.2200        16.9154           0.0000          0.0000            40.83         1.23          0.1000            0.0000           2.4500       PFind                   None            0.00    0.00    None
  5.7000        15.4919           0.0000          0.0000            41.67         1.25          0.0800            0.0000           2.5000       PFind                   None            0.00    0.00    None
  6.4800        13.6288           0.0000          0.0000            57.50         1.73          0.1000            0.0000           6.9000       PFind                   None            0.00    0.00    None
  6.9000        12.8002           0.0000          0.0000            34.17         1.03          0.0200            0.0000           4.1000       PFind                   None            0.00    0.00    None
  7.6800        11.5018           0.0000          0.0000            35.00         1.05          0.1200            0.0000           2.1000       PFind                   None            0.00    0.00    None
  8.3000        10.6440           0.0000          0.0000            34.17         1.03          0.0400            0.0000           2.7333       PFind                   None            0.00    0.00    None
  9.4000         9.4007           0.0000          0.0000            33.33         1.00          0.1200            0.0000           4.0000       PFind                   None            0.00    0.00    None
 10.0400         8.8029           0.0000          0.0000            34.17         1.03          0.1000            0.0000           0.0000       PFind                   None            0.00    0.00    None
 12.4400         7.1094           0.0000          0.0000           155.83         4.68          0.0400            0.0000          15.5833       PFind                   None            0.00    0.00    None
 14.1000         6.2759           0.0000          0.0000            43.33         1.30          0.1600            0.0000           6.0667       PFind                   None            0.00    0.00    None
 19.0000         4.6670           0.0000          0.0000            62.50         1.88          0.0000            0.0000           7.5000       PFind                   None            0.00    0.00    None
 22.2400         3.9939           0.0000          0.0000           205.00         6.15          0.0200            0.0000          24.6000       PFind                   None            0.00    0.00    None
 24.0200         3.7018           0.0000          0.0000            58.33         1.75          0.1200            0.0000           0.0000       PFind                   None            0.00    0.00    None
 25.4000         3.5037           0.0000          0.0000           106.67         3.20          0.0400            0.0000          10.6667       PFind                   None            0.00    0.00    None
 27.1400         3.2829           0.0000          0.0000           410.00        12.31          0.0600            0.0000          49.2000       PFind                   None            0.00    0.00    None
 28.9000         3.0869           0.0000          0.0000           106.67         3.20          0.1200            0.0000          17.0667       PFind                   None            0.00    0.00    None
 30.7000         2.9099           0.0000          0.0000            84.17         2.53          0.0400            0.0000          10.1000       PFind                   None            0.00    0.00    None
 31.7600         2.8151           0.0000          0.0000            40.83         1.23          0.0200            0.0000           4.9000       PFind                   None            0.00    0.00    None
 34.1400         2.6241           0.0000          0.0000            38.33         1.15          0.1400            0.0000           6.1333       PFind                   None            0.00    0.00    None
 35.7200         2.5116           0.0000          0.0000           102.50         3.08          0.1000            0.0000          16.4000       PFind                   None            0.00    0.00    None
 36.7400         2.4442           0.0000          0.0000           217.50         6.53          0.0600            0.0000          17.4000       PFind                   None            0.00    0.00    None
 39.6600         2.2707           0.0000          0.0000           138.33         4.15          0.0400            0.0000          13.8333       PFind                   None            0.00    0.00    None
 42.6600         2.1177           0.0000          0.0000           187.50         5.63          0.1200            0.0000          15.0000       PFind                   None            0.00    0.00    None
 45.2800         2.0010           0.0000          0.0000            46.67         1.40          0.1200            0.0000           7.4667       PFind                   None            0.00    0.00    None
 48.3400         1.8813           0.0000          0.0000            35.00         1.05          0.1000            0.0000           1.4000       PFind                   None            0.00    0.00    None
 49.4000         1.8434           0.0000          0.0000            61.67         1.85          0.1600            0.0000           2.4667       PFind                   None            0.00    0.00    None
 50.3400         1.8111           0.0000          0.0000           502.50        15.09          0.0200            0.0000          50.2500       PFind                   None            0.00    0.00    None
 51.3200         1.7788           0.0000          0.0000            45.83         1.38          0.1200            0.0000           3.6667       PFind                   None            0.00    0.00    None
 54.5000         1.6823           0.0000          0.0000            32.50         0.98          0.1600            0.0000           0.6500       PFind                   None            0.00    0.00    None
 55.5000         1.6543           0.0000          0.0000            78.33         2.35          0.1200            0.0000           7.8333       PFind                   None            0.00    0.00    None
 59.3800         1.5552           0.0000          0.0000            49.17         1.48          0.1600            0.0000           2.9500       PFind                   None            0.00    0.00    None
 61.1200         1.5150           0.0000          0.0000            35.00         1.05          0.0400            0.0000           2.1000       PFind                   None            0.00    0.00    None
 61.9200         1.4973           0.0000          0.0000            31.67         0.95          0.0200            0.0000           5.0667       PFind                   None            0.00    0.00    None
 64.2800         1.4479           0.0000          0.0000            71.67         2.15          0.1200            0.0000          10.0333       PFind                   None            0.00    0.00    None