File: Generating XRD fingerprints/INPUT/Detrital data/GG_1_pf_SFT.txt
Filename:
	C:\Program Files\Thermo Electron\WinXRD\Datafiles\FIEN2\GEO\GG_1_SFT.pk

File Created:
	February 25, 2021 - 10:13 AM

Specimen Id:
	GG1 SFT

Specimen Name:

Specimen Description:

Comment:
Scan Type: 2Theta Scan
Start Angle: 3 deg.
Stop Angle: 65 deg.
Num Points: 3101
Step Size: 0.02 deg.
Scan Rate: 1.000000
Scan Mode: Continuous
Wavelength: 1.540562
\Kalpha1: 1.540562	\Kalpha2: 1.544390	\Kbeta: 1.392218

Optics:
		Detector:
			 Type: Fixed Slits
		Tube:
			 Type: Fixed Slits

Datas:
Peaks:

Position        Dspace          ESD(P)          Corr.Fact       Intensity       Rel.Int.        FWHM(L)         ESD(L)          Area            Source                  Curve           Strain  CSize   CSize_Source
[deg]           [A]             [deg]           [deg]           [CPS]           [CPS]           [deg]           [deg]           [deg]           [--]                    [--]            [--]    [--]    [--]
  4.8000        18.3945           0.0000          0.0000            40.00         2.11          0.0600            0.0000           4.8000       PFind                   None            0.00    0.00    None
  5.2000        16.9804           0.0000          0.0000            45.00         2.38          0.1000            0.0000           5.4000       PFind                   None            0.00    0.00    None
  5.6400        15.6566           0.0000          0.0000            35.00         1.85          0.0800            0.0000           0.0000       PFind                   None            0.00    0.00    None
  6.1400        14.3827           0.0000          0.0000            42.50         2.25          0.0600            0.0000           0.0000       PFind                   None            0.00    0.00    None
  6.8800        12.8373           0.0000          0.0000            35.00         1.85          0.1000            0.0000           2.8000       PFind                   None            0.00    0.00    None
  7.5400        11.7150           0.0000          0.0000            34.17         1.81          0.0600            0.0000           2.0500       PFind                   None            0.00    0.00    None
  8.1400        10.8528           0.0000          0.0000            30.00         1.59          0.0400            0.0000           4.8000       PFind                   None            0.00    0.00    None
  9.2600         9.5425           0.0000          0.0000            53.33         2.82          0.1600            0.0000           6.4000       PFind                   None            0.00    0.00    None
 10.2200         8.6482           0.0000          0.0000            25.00         1.32          0.0800            0.0000           3.0000       PFind                   None            0.00    0.00    None
 10.9000         8.1102           0.0000          0.0000            30.83         1.63          0.0400            0.0000           0.0000       PFind                   None            0.00    0.00    None
 12.3000         7.1900           0.0000          0.0000           209.17        11.06          0.0600            0.0000          33.4667       PFind                   None            0.00    0.00    None
 13.7400         6.4396           0.0000          0.0000            26.67         1.41          0.1200            0.0000           1.0667       PFind                   None            0.00    0.00    None
 15.1000         5.8625           0.0000          0.0000            40.83         2.16          0.1600            0.0000           1.6333       PFind                   None            0.00    0.00    None
 17.1400         5.1691           0.0000          0.0000            29.17         1.54          0.0800            0.0000           0.5833       PFind                   None            0.00    0.00    None
 19.3200         4.5904           0.0000          0.0000            31.67         1.67          0.0800            0.0000           1.2667       PFind                   None            0.00    0.00    None
 20.2600         4.3795           0.0000          0.0000            25.83         1.37          0.1000            0.0000           0.5167       PFind                   None            0.00    0.00    None
 22.1600         4.0081           0.0000          0.0000           234.17        12.38          0.0600            0.0000          18.7333       PFind                   None            0.00    0.00    None
 23.6600         3.7573           0.0000          0.0000           122.50         6.48          0.0800            0.0000          12.2500       PFind                   None            0.00    0.00    None
 24.2200         3.6717           0.0000          0.0000           121.67         6.43          0.0000            0.0000           9.7333       PFind                   None            0.00    0.00    None
 25.6200         3.4741           0.0000          0.0000           197.50        10.44          0.0600            0.0000          31.6000       PFind                   None            0.00    0.00    None
 27.6400         3.2247           0.0000          0.0000           101.67         5.37          0.0600            0.0000          10.1667       PFind                   None            0.00    0.00    None
 28.9000         3.0869           0.0000          0.0000            86.67         4.58          0.0200            0.0000          12.1333       PFind                   None            0.00    0.00    None
 30.3000         2.9474           0.0000          0.0000            58.33         3.08          0.1400            0.0000           7.0000       PFind                   None            0.00    0.00    None
 31.3400         2.8519           0.0000          0.0000           136.67         7.22          0.0200            0.0000          16.4000       PFind                   None            0.00    0.00    None
 33.1800         2.6978           0.0000          0.0000            33.33         1.76          0.1200            0.0000           2.0000       PFind                   None            0.00    0.00    None
 34.6200         2.5888           0.0000          0.0000            74.17         3.92          0.0400            0.0000          11.8667       PFind                   None            0.00    0.00    None
 35.6200         2.5184           0.0000          0.0000            51.67         2.73          0.1000            0.0000           3.1000       PFind                   None            0.00    0.00    None
 36.6600         2.4493           0.0000          0.0000           125.00         6.61          0.1200            0.0000          17.5000       PFind                   None            0.00    0.00    None
 37.7200         2.3829           0.0000          0.0000            75.00         3.96          0.1200            0.0000          12.0000       PFind                   None            0.00    0.00    None
 39.5800         2.2751           0.0000          0.0000           115.00         6.08          0.0400            0.0000           9.2000       PFind                   None            0.00    0.00    None
 40.4000         2.2308           0.0000          0.0000            56.67         3.00          0.0400            0.0000           6.8000       PFind                   None            0.00    0.00    None
 42.0000         2.1494           0.0000          0.0000            25.00         1.32          0.1000            0.0000           4.0000       PFind                   None            0.00    0.00    None
 44.4000         2.0386           0.0000          0.0000           745.00        39.38          0.0000            0.0000          59.6000       PFind                   None            0.00    0.00    None
 45.6600         1.9853           0.0000          0.0000           436.67        23.08          0.0000            0.0000          69.8667       PFind                   None            0.00    0.00    None
 47.2600         1.9217           0.0000          0.0000            28.33         1.50          0.1000            0.0000           0.5667       PFind                   None            0.00    0.00    None
 49.3400         1.8455           0.0000          0.0000            24.17         1.28          0.0400            0.0000           0.9667       PFind                   None            0.00    0.00    None
 50.2400         1.8145           0.0000          0.0000           212.50        11.23          0.0800            0.0000          17.0000       PFind                   None            0.00    0.00    None
 52.9400         1.7281           0.0000          0.0000            30.83         1.63          0.1600            0.0000           0.0000       PFind                   None            0.00    0.00    None
 54.9600         1.6693           0.0000          0.0000            45.00         2.38          0.1600            0.0000           5.4000       PFind                   None            0.00    0.00    None
 55.4200         1.6565           0.0000          0.0000            71.67         3.79          0.0200            0.0000           5.7333       PFind                   None            0.00    0.00    None
 55.8600         1.6445           0.0000          0.0000            65.00         3.44          0.0600            0.0000           6.5000       PFind                   None            0.00    0.00    None
 59.2200         1.5590           0.0000          0.0000            25.00         1.32          0.1600            0.0000           2.0000       PFind                   None            0.00    0.00    None
 60.2200         1.5355           0.0000          0.0000            78.33         4.14          0.0200            0.0000           7.8333       PFind                   None            0.00    0.00    None
 61.5800         1.5048           0.0000          0.0000            49.17         2.60          0.1400            0.0000           7.8667       PFind                   None            0.00    0.00    None
 64.7000         1.4395           0.0000          0.0000           364.17        19.25          0.1200            0.0000          21.8500       PFind                   None            0.00    0.00    None