File: Generating XRD fingerprints/INPUT/Detrital data/GG_14_pf_SFT.txt
Filename:
	C:\Program Files\Thermo Electron\WinXRD\Datafiles\FIEN2\GEO\GG_14_SFT.pk

File Created:
	February 25, 2021 - 10:24 AM

Specimen Id:
	GG_14_SFT

Specimen Name:

Specimen Description:

Comment:
Scan Type: 2Theta Scan
Start Angle: 3 deg.
Stop Angle: 65 deg.
Num Points: 3101
Step Size: 0.02 deg.
Scan Rate: 1.000000
Scan Mode: Continuous
Wavelength: 1.540562
\Kalpha1: 1.540562	\Kalpha2: 1.544390	\Kbeta: 1.392218

Optics:
		Detector:
			 Type: Fixed Slits
		Tube:
			 Type: Fixed Slits

Datas:
Peaks:

Position        Dspace          ESD(P)          Corr.Fact       Intensity       Rel.Int.        FWHM(L)         ESD(L)          Area            Source                  Curve           Strain  CSize   CSize_Source
[deg]           [A]             [deg]           [deg]           [CPS]           [CPS]           [deg]           [deg]           [deg]           [--]                    [--]            [--]    [--]    [--]
  4.6600        18.9468           0.0000          0.0000            54.17         3.34          0.1600            0.0000           2.1667       PFind                   None            0.00    0.00    None
  5.0800        17.3812           0.0000          0.0000            46.67         2.88          0.0600            0.0000           2.8000       PFind                   None            0.00    0.00    None
  5.7400        15.3841           0.0000          0.0000            36.67         2.26          0.0600            0.0000           2.2000       PFind                   None            0.00    0.00    None
  6.4800        13.6288           0.0000          0.0000            65.00         4.01          0.1200            0.0000           7.8000       PFind                   None            0.00    0.00    None
  6.8400        12.9123           0.0000          0.0000            35.83         2.21          0.1400            0.0000           3.5833       PFind                   None            0.00    0.00    None
  7.4000        11.9364           0.0000          0.0000            32.50         2.00          0.1600            0.0000           1.3000       PFind                   None            0.00    0.00    None
  8.6400        10.2259           0.0000          0.0000            30.00         1.85          0.0600            0.0000           4.2000       PFind                   None            0.00    0.00    None
  9.3800         9.4207           0.0000          0.0000            35.83         2.21          0.1000            0.0000           0.7167       PFind                   None            0.00    0.00    None
 12.4000         7.1323           0.0000          0.0000           182.50        11.25          0.1000            0.0000          18.2500       PFind                   None            0.00    0.00    None
 18.0600         4.9078           0.0000          0.0000            58.33         3.60          0.0800            0.0000           7.0000       PFind                   None            0.00    0.00    None
 19.9200         4.4535           0.0000          0.0000            68.33         4.21          0.0600            0.0000           8.2000       PFind                   None            0.00    0.00    None
 21.1000         4.2070           0.0000          0.0000           240.00        14.79          0.0600            0.0000          33.6000       PFind                   None            0.00    0.00    None
 23.1400         3.8406           0.0000          0.0000            68.33         4.21          0.1600            0.0000           9.5667       PFind                   None            0.00    0.00    None
 24.6000         3.6158           0.0000          0.0000            83.33         5.14          0.1400            0.0000          13.3333       PFind                   None            0.00    0.00    None
 25.7000         3.4635           0.0000          0.0000           109.17         6.73          0.1400            0.0000          13.1000       PFind                   None            0.00    0.00    None
 27.3200         3.2617           0.0000          0.0000            50.83         3.13          0.0400            0.0000           3.0500       PFind                   None            0.00    0.00    None
 28.7200         3.1058           0.0000          0.0000           214.17        13.20          0.1400            0.0000          21.4167       PFind                   None            0.00    0.00    None
 31.0800         2.8751           0.0000          0.0000            73.33         4.52          0.1600            0.0000           5.8667       PFind                   None            0.00    0.00    None
 32.3400         2.7659           0.0000          0.0000            59.17         3.65          0.1400            0.0000           8.2833       PFind                   None            0.00    0.00    None
 35.2800         2.5419           0.0000          0.0000            95.00         5.86          0.1200            0.0000          15.2000       PFind                   None            0.00    0.00    None
 37.5600         2.3927           0.0000          0.0000            39.17         2.41          0.0200            0.0000           2.3500       PFind                   None            0.00    0.00    None
 38.1800         2.3552           0.0000          0.0000           149.17         9.19          0.0400            0.0000           5.9667       PFind                   None            0.00    0.00    None
 39.6600         2.2707           0.0000          0.0000           204.17        12.58          0.1200            0.0000          16.3333       PFind                   None            0.00    0.00    None
 42.0000         2.1494           0.0000          0.0000            82.50         5.08          0.0800            0.0000           4.9500       PFind                   None            0.00    0.00    None
 44.3600         2.0404           0.0000          0.0000           143.33         8.83          0.0000            0.0000           8.6000       PFind                   None            0.00    0.00    None
 45.8800         1.9763           0.0000          0.0000            74.17         4.57          0.1600            0.0000          11.8667       PFind                   None            0.00    0.00    None
 47.1800         1.9248           0.0000          0.0000            44.17         2.72          0.1600            0.0000           1.7667       PFind                   None            0.00    0.00    None
 48.3400         1.8813           0.0000          0.0000            40.83         2.52          0.1600            0.0000           3.2667       PFind                   None            0.00    0.00    None
 50.0200         1.8220           0.0000          0.0000            65.00         4.01          0.1400            0.0000           6.5000       PFind                   None            0.00    0.00    None
 50.8200         1.7951           0.0000          0.0000            43.33         2.67          0.1000            0.0000           6.9333       PFind                   None            0.00    0.00    None
 52.3400         1.7465           0.0000          0.0000            30.00         1.85          0.0600            0.0000           0.6000       PFind                   None            0.00    0.00    None
 52.9000         1.7293           0.0000          0.0000            30.00         1.85          0.1400            0.0000           0.0000       PFind                   None            0.00    0.00    None
 55.1200         1.6648           0.0000          0.0000           113.33         6.99          0.1000            0.0000          15.8667       PFind                   None            0.00    0.00    None
 56.1400         1.6370           0.0000          0.0000            52.50         3.24          0.0600            0.0000           5.2500       PFind                   None            0.00    0.00    None
 59.4400         1.5537           0.0000          0.0000            63.33         3.90          0.1000            0.0000           6.3333       PFind                   None            0.00    0.00    None
 61.0000         1.5177           0.0000          0.0000            30.83         1.90          0.0200            0.0000           3.0833       PFind                   None            0.00    0.00    None
 61.8600         1.4986           0.0000          0.0000            47.50         2.93          0.0600            0.0000           6.6500       PFind                   None            0.00    0.00    None
 64.4800         1.4439           0.0000          0.0000            91.67         5.65          0.1000            0.0000           5.5000       PFind                   None            0.00    0.00    None
 64.6800         1.4399           0.0000          0.0000            50.83         3.13          0.1600            0.0000           3.0500       PFind                   None            0.00    0.00    None