File: Generating XRD fingerprints/INPUT/Detrital data/GG_15_pf_SFT.txt
Filename:
	C:\Program Files\Thermo Electron\WinXRD\Datafiles\FIEN2\GEO\GG_15_SFT.pk

File Created:
	February 25, 2021 - 10:24 AM

Specimen Id:
	GG15 SFT

Specimen Name:

Specimen Description:

Comment:
Scan Type: 2Theta Scan
Start Angle: 3 deg.
Stop Angle: 65 deg.
Num Points: 3101
Step Size: 0.02 deg.
Scan Rate: 1.000000
Scan Mode: Continuous
Wavelength: 1.540562
\Kalpha1: 1.540562	\Kalpha2: 1.544390	\Kbeta: 1.392218

Optics:
		Detector:
			 Type: Fixed Slits
		Tube:
			 Type: Fixed Slits

Datas:
Peaks:

Position        Dspace          ESD(P)          Corr.Fact       Intensity       Rel.Int.        FWHM(L)         ESD(L)          Area            Source                  Curve           Strain  CSize   CSize_Source
[deg]           [A]             [deg]           [deg]           [CPS]           [CPS]           [deg]           [deg]           [deg]           [--]                    [--]            [--]    [--]    [--]
  4.7800        18.4714           0.0000          0.0000            42.50         1.15          0.1200            0.0000           5.9500       PFind                   None            0.00    0.00    None
  5.5400        15.9390           0.0000          0.0000            40.83         1.11          0.1600            0.0000           2.4500       PFind                   None            0.00    0.00    None
  5.9400        14.8665           0.0000          0.0000            33.33         0.90          0.1200            0.0000           4.0000       PFind                   None            0.00    0.00    None
  6.4800        13.6288           0.0000          0.0000            60.00         1.62          0.1200            0.0000           9.6000       PFind                   None            0.00    0.00    None
  7.1600        12.3359           0.0000          0.0000            37.50         1.02          0.1200            0.0000           0.0000       PFind                   None            0.00    0.00    None
  8.2400        10.7213           0.0000          0.0000            28.33         0.77          0.1600            0.0000           3.4000       PFind                   None            0.00    0.00    None
  9.4800         9.3216           0.0000          0.0000            25.83         0.70          0.0800            0.0000           4.1333       PFind                   None            0.00    0.00    None
 10.7400         8.2306           0.0000          0.0000            36.67         0.99          0.1400            0.0000           4.4000       PFind                   None            0.00    0.00    None
 12.4800         7.0867           0.0000          0.0000           190.83         5.17          0.0000            0.0000          22.9000       PFind                   None            0.00    0.00    None
 14.5600         6.0787           0.0000          0.0000            25.83         0.70          0.1000            0.0000           0.0000       PFind                   None            0.00    0.00    None
 18.0800         4.9024           0.0000          0.0000            66.67         1.80          0.1000            0.0000           6.6667       PFind                   None            0.00    0.00    None
 19.6800         4.5073           0.0000          0.0000            32.50         0.88          0.0200            0.0000           3.2500       PFind                   None            0.00    0.00    None
 22.3200         3.9798           0.0000          0.0000           233.33         6.32          0.0600            0.0000          18.6667       PFind                   None            0.00    0.00    None
 23.8200         3.7324           0.0000          0.0000            71.67         1.94          0.0800            0.0000          10.0333       PFind                   None            0.00    0.00    None
 24.6000         3.6158           0.0000          0.0000           195.00         5.28          0.1600            0.0000          15.6000       PFind                   None            0.00    0.00    None
 25.4400         3.4983           0.0000          0.0000           106.67         2.89          0.1200            0.0000          14.9333       PFind                   None            0.00    0.00    None
 27.7800         3.2087           0.0000          0.0000           116.67         3.16          0.0800            0.0000          11.6667       PFind                   None            0.00    0.00    None
 28.8600         3.0911           0.0000          0.0000            90.83         2.46          0.0800            0.0000           9.0833       PFind                   None            0.00    0.00    None
 30.1600         2.9607           0.0000          0.0000           118.33         3.20          0.1200            0.0000          16.5667       PFind                   None            0.00    0.00    None
 31.5800         2.8307           0.0000          0.0000           133.33         3.61          0.0600            0.0000          16.0000       PFind                   None            0.00    0.00    None
 33.3200         2.6868           0.0000          0.0000           134.17         3.63          0.1200            0.0000           2.6833       PFind                   None            0.00    0.00    None
 35.8800         2.5007           0.0000          0.0000           119.17         3.23          0.1200            0.0000          16.6833       PFind                   None            0.00    0.00    None
 36.8200         2.4390           0.0000          0.0000           225.00         6.09          0.1000            0.0000          27.0000       PFind                   None            0.00    0.00    None
 37.9600         2.3684           0.0000          0.0000            70.83         1.92          0.0400            0.0000          11.3333       PFind                   None            0.00    0.00    None
 39.7600         2.2652           0.0000          0.0000           314.17         8.50          0.0600            0.0000          31.4167       PFind                   None            0.00    0.00    None
 41.9400         2.1523           0.0000          0.0000            67.50         1.83          0.1600            0.0000           8.1000       PFind                   None            0.00    0.00    None
 43.2400         2.0906           0.0000          0.0000            25.83         0.70          0.1000            0.0000           1.5500       PFind                   None            0.00    0.00    None
 45.4600         1.9935           0.0000          0.0000            51.67         1.40          0.1000            0.0000           5.1667       PFind                   None            0.00    0.00    None
 46.0200         1.9706           0.0000          0.0000           104.17         2.82          0.1400            0.0000          14.5833       PFind                   None            0.00    0.00    None
 48.4200         1.8784           0.0000          0.0000            40.83         1.11          0.0600            0.0000           4.0833       PFind                   None            0.00    0.00    None
 49.6200         1.8357           0.0000          0.0000            26.67         0.72          0.0800            0.0000           2.6667       PFind                   None            0.00    0.00    None
 51.5000         1.7730           0.0000          0.0000            36.67         0.99          0.1200            0.0000           5.8667       PFind                   None            0.00    0.00    None
 52.5200         1.7410           0.0000          0.0000            44.17         1.20          0.0800            0.0000           0.8833       PFind                   None            0.00    0.00    None
 53.3600         1.7155           0.0000          0.0000            30.00         0.81          0.0000            0.0000           2.4000       PFind                   None            0.00    0.00    None
 54.2600         1.6892           0.0000          0.0000            29.17         0.79          0.1000            0.0000           1.1667       PFind                   None            0.00    0.00    None
 56.1000         1.6381           0.0000          0.0000            60.83         1.65          0.0000            0.0000           9.7333       PFind                   None            0.00    0.00    None
 59.4000         1.5547           0.0000          0.0000            48.33         1.31          0.1400            0.0000           1.9333       PFind                   None            0.00    0.00    None
 60.3600         1.5322           0.0000          0.0000           119.17         3.23          0.1000            0.0000          16.6833       PFind                   None            0.00    0.00    None
 61.3200         1.5105           0.0000          0.0000            31.67         0.86          0.1200            0.0000           1.9000       PFind                   None            0.00    0.00    None
 62.0400         1.4947           0.0000          0.0000            42.50         1.15          0.1600            0.0000           4.2500       PFind                   None            0.00    0.00    None
 64.5000         1.4435           0.0000          0.0000            31.67         0.86          0.1000            0.0000           0.6333       PFind                   None            0.00    0.00    None