File: Generating XRD fingerprints/INPUT/Detrital data/GG_12_pf_SFT.txt
Filename:
	C:\Program Files\Thermo Electron\WinXRD\Datafiles\FIEN2\GEO\GG_12_SFT.pk

File Created:
	February 25, 2021 - 10:22 AM

Specimen Id:
	GG_12_SFT

Specimen Name:

Specimen Description:

Comment:
Scan Type: 2Theta Scan
Start Angle: 3 deg.
Stop Angle: 65 deg.
Num Points: 3101
Step Size: 0.02 deg.
Scan Rate: 1.000000
Scan Mode: Continuous
Wavelength: 1.540562
\Kalpha1: 1.540562	\Kalpha2: 1.544390	\Kbeta: 1.392218

Optics:
		Detector:
			 Type: Fixed Slits
		Tube:
			 Type: Fixed Slits

Datas:
Peaks:

Position        Dspace          ESD(P)          Corr.Fact       Intensity       Rel.Int.        FWHM(L)         ESD(L)          Area            Source                  Curve           Strain  CSize   CSize_Source
[deg]           [A]             [deg]           [deg]           [CPS]           [CPS]           [deg]           [deg]           [deg]           [--]                    [--]            [--]    [--]    [--]
  4.6400        19.0284           0.0000          0.0000            45.00         3.65          0.0800            0.0000           1.8000       PFind                   None            0.00    0.00    None
  5.2000        16.9804           0.0000          0.0000            48.33         3.92          0.1000            0.0000           0.0000       PFind                   None            0.00    0.00    None
  5.9800        14.7672           0.0000          0.0000            71.67         5.81          0.1400            0.0000           0.0000       PFind                   None            0.00    0.00    None
  6.4400        13.7134           0.0000          0.0000            74.17         6.01          0.0600            0.0000          10.3833       PFind                   None            0.00    0.00    None
  7.2400        12.1998           0.0000          0.0000            28.33         2.30          0.0800            0.0000           0.5667       PFind                   None            0.00    0.00    None
  7.6400        11.5619           0.0000          0.0000            33.33         2.70          0.1600            0.0000           0.6667       PFind                   None            0.00    0.00    None
  8.3000        10.6440           0.0000          0.0000            25.00         2.03          0.0800            0.0000           2.0000       PFind                   None            0.00    0.00    None
  9.3600         9.4408           0.0000          0.0000            37.50         3.04          0.1600            0.0000           3.7500       PFind                   None            0.00    0.00    None
 10.0200         8.8204           0.0000          0.0000            34.17         2.77          0.0800            0.0000           4.1000       PFind                   None            0.00    0.00    None
 11.2600         7.8517           0.0000          0.0000            25.83         2.09          0.0800            0.0000           0.5167       PFind                   None            0.00    0.00    None
 12.6800         6.9754           0.0000          0.0000           192.50        15.60          0.0000            0.0000          30.8000       PFind                   None            0.00    0.00    None
 14.2000         6.2320           0.0000          0.0000            40.83         3.31          0.1600            0.0000           2.4500       PFind                   None            0.00    0.00    None
 18.9800         4.6719           0.0000          0.0000            70.00         5.67          0.1600            0.0000           9.8000       PFind                   None            0.00    0.00    None
 21.0400         4.2189           0.0000          0.0000           223.33        18.10          0.0400            0.0000          31.2667       PFind                   None            0.00    0.00    None
 23.2000         3.8308           0.0000          0.0000            91.67         7.43          0.1000            0.0000          11.0000       PFind                   None            0.00    0.00    None
 24.5200         3.6274           0.0000          0.0000            77.50         6.28          0.1600            0.0000           7.7500       PFind                   None            0.00    0.00    None
 25.3400         3.5119           0.0000          0.0000           124.17        10.06          0.0400            0.0000          19.8667       PFind                   None            0.00    0.00    None
 26.3000         3.3858           0.0000          0.0000            28.33         2.30          0.1400            0.0000           0.0000       PFind                   None            0.00    0.00    None
 28.1400         3.1685           0.0000          0.0000           421.67        34.17          0.0600            0.0000          59.0333       PFind                   None            0.00    0.00    None
 30.0800         2.9684           0.0000          0.0000           126.67        10.26          0.0200            0.0000          20.2667       PFind                   None            0.00    0.00    None
 30.6600         2.9136           0.0000          0.0000            73.33         5.94          0.0800            0.0000          11.7333       PFind                   None            0.00    0.00    None
 31.7600         2.8151           0.0000          0.0000            34.17         2.77          0.0000            0.0000           3.4167       PFind                   None            0.00    0.00    None
 33.2800         2.6899           0.0000          0.0000            47.50         3.85          0.1400            0.0000           7.6000       PFind                   None            0.00    0.00    None
 35.1600         2.5503           0.0000          0.0000           100.00         8.10          0.1400            0.0000          16.0000       PFind                   None            0.00    0.00    None
 36.7200         2.4454           0.0000          0.0000           114.17         9.25          0.0200            0.0000          11.4167       PFind                   None            0.00    0.00    None
 37.9000         2.3720           0.0000          0.0000            90.00         7.29          0.1200            0.0000          12.6000       PFind                   None            0.00    0.00    None
 39.6400         2.2718           0.0000          0.0000            90.00         7.29          0.0800            0.0000          12.6000       PFind                   None            0.00    0.00    None
 40.8400         2.2077           0.0000          0.0000            30.83         2.50          0.1200            0.0000           0.6167       PFind                   None            0.00    0.00    None
 41.9600         2.1514           0.0000          0.0000            68.33         5.54          0.1400            0.0000           9.5667       PFind                   None            0.00    0.00    None
 45.4000         1.9960           0.0000          0.0000            55.83         4.52          0.1600            0.0000           8.9333       PFind                   None            0.00    0.00    None
 48.3000         1.8827           0.0000          0.0000            31.67         2.57          0.0600            0.0000           0.0000       PFind                   None            0.00    0.00    None
 49.4000         1.8434           0.0000          0.0000            33.33         2.70          0.1000            0.0000           1.3333       PFind                   None            0.00    0.00    None
 50.7600         1.7971           0.0000          0.0000            55.00         4.46          0.0000            0.0000           8.8000       PFind                   None            0.00    0.00    None
 51.4400         1.7749           0.0000          0.0000            55.00         4.46          0.1400            0.0000           2.2000       PFind                   None            0.00    0.00    None
 53.4000         1.7143           0.0000          0.0000            35.00         2.84          0.1400            0.0000           5.6000       PFind                   None            0.00    0.00    None
 55.1800         1.6632           0.0000          0.0000            32.50         2.63          0.1600            0.0000           4.5500       PFind                   None            0.00    0.00    None
 56.0000         1.6407           0.0000          0.0000            61.67         5.00          0.1000            0.0000           4.9333       PFind                   None            0.00    0.00    None
 57.3600         1.6050           0.0000          0.0000            23.33         1.89          0.0400            0.0000           1.4000       PFind                   None            0.00    0.00    None
 60.1400         1.5373           0.0000          0.0000           195.83        15.87          0.0400            0.0000          27.4167       PFind                   None            0.00    0.00    None
 61.1800         1.5136           0.0000          0.0000            37.50         3.04          0.0400            0.0000           3.0000       PFind                   None            0.00    0.00    None
 62.0600         1.4943           0.0000          0.0000            26.67         2.16          0.0400            0.0000           1.0667       PFind                   None            0.00    0.00    None
 64.1600         1.4503           0.0000          0.0000            46.67         3.78          0.1600            0.0000           3.7333       PFind                   None            0.00    0.00    None