File: Generating XRD fingerprints/INPUT/Detrital data/GG_3_pf_SFT.txt
Filename:
	C:\Program Files\Thermo Electron\WinXRD\Datafiles\FIEN2\GEO\GG_3_SFT.pk

File Created:
	February 25, 2021 - 10:15 AM

Specimen Id:
	GG3 SFT

Specimen Name:

Specimen Description:

Comment:
Scan Type: 2Theta Scan
Start Angle: 3 deg.
Stop Angle: 65 deg.
Num Points: 3101
Step Size: 0.02 deg.
Scan Rate: 1.000000
Scan Mode: Continuous
Wavelength: 1.540562
\Kalpha1: 1.540562	\Kalpha2: 1.544390	\Kbeta: 1.392218

Optics:
		Detector:
			 Type: Fixed Slits
		Tube:
			 Type: Fixed Slits

Datas:
Peaks:

Position        Dspace          ESD(P)          Corr.Fact       Intensity       Rel.Int.        FWHM(L)         ESD(L)          Area            Source                  Curve           Strain  CSize   CSize_Source
[deg]           [A]             [deg]           [deg]           [CPS]           [CPS]           [deg]           [deg]           [deg]           [--]                    [--]            [--]    [--]    [--]
  4.9000        18.0193           0.0000          0.0000            50.83         2.50          0.1200            0.0000           2.0333       PFind                   None            0.00    0.00    None
  5.3600        16.4739           0.0000          0.0000            35.83         1.76          0.0400            0.0000           1.4333       PFind                   None            0.00    0.00    None
  5.7800        15.2777           0.0000          0.0000            65.83         3.24          0.1200            0.0000           1.3167       PFind                   None            0.00    0.00    None
  6.4600        13.6710           0.0000          0.0000            48.33         2.38          0.1600            0.0000           3.8667       PFind                   None            0.00    0.00    None
  7.0200        12.5816           0.0000          0.0000            40.83         2.01          0.0600            0.0000           2.4500       PFind                   None            0.00    0.00    None
  7.4600        11.8405           0.0000          0.0000            37.50         1.85          0.0000            0.0000           3.0000       PFind                   None            0.00    0.00    None
  8.2200        10.7474           0.0000          0.0000            34.17         1.68          0.1000            0.0000           2.0500       PFind                   None            0.00    0.00    None
  9.5000         9.3020           0.0000          0.0000            56.67         2.79          0.1600            0.0000           2.2667       PFind                   None            0.00    0.00    None
 10.1400         8.7163           0.0000          0.0000            38.33         1.89          0.1000            0.0000           0.7667       PFind                   None            0.00    0.00    None
 11.3800         7.7692           0.0000          0.0000            34.17         1.68          0.0600            0.0000           1.3667       PFind                   None            0.00    0.00    None
 13.0800         6.7630           0.0000          0.0000            29.17         1.44          0.1000            0.0000           2.9167       PFind                   None            0.00    0.00    None
 13.9000         6.3658           0.0000          0.0000            53.33         2.63          0.1200            0.0000           7.4667       PFind                   None            0.00    0.00    None
 15.8800         5.5763           0.0000          0.0000            29.17         1.44          0.0600            0.0000           0.0000       PFind                   None            0.00    0.00    None
 19.9000         4.4579           0.0000          0.0000           105.83         5.21          0.1000            0.0000          16.9333       PFind                   None            0.00    0.00    None
 20.9200         4.2428           0.0000          0.0000           350.83        17.27          0.0200            0.0000          35.0833       PFind                   None            0.00    0.00    None
 22.9600         3.8703           0.0000          0.0000           100.83         4.96          0.0000            0.0000          14.1167       PFind                   None            0.00    0.00    None
 24.3800         3.6480           0.0000          0.0000           120.00         5.91          0.0400            0.0000          14.4000       PFind                   None            0.00    0.00    None
 25.5600         3.4822           0.0000          0.0000           197.50         9.72          0.0200            0.0000          27.6500       PFind                   None            0.00    0.00    None
 26.9000         3.3117           0.0000          0.0000           713.33        35.11          0.0000            0.0000         114.1333       PFind                   None            0.00    0.00    None
 28.3600         3.1444           0.0000          0.0000           121.67         5.99          0.0200            0.0000          17.0333       PFind                   None            0.00    0.00    None
 30.2200         2.9550           0.0000          0.0000            59.17         2.91          0.1600            0.0000           9.4667       PFind                   None            0.00    0.00    None
 30.8600         2.8951           0.0000          0.0000            33.33         1.64          0.0800            0.0000           3.3333       PFind                   None            0.00    0.00    None
 32.1400         2.7827           0.0000          0.0000           116.67         5.74          0.1200            0.0000          14.0000       PFind                   None            0.00    0.00    None
 34.1200         2.6256           0.0000          0.0000            40.00         1.97          0.0200            0.0000           0.8000       PFind                   None            0.00    0.00    None
 35.0800         2.5559           0.0000          0.0000           160.00         7.88          0.0600            0.0000          25.6000       PFind                   None            0.00    0.00    None
 35.8600         2.5021           0.0000          0.0000            29.17         1.44          0.0200            0.0000           0.5833       PFind                   None            0.00    0.00    None
 37.6200         2.3890           0.0000          0.0000            82.50         4.06          0.0400            0.0000          13.2000       PFind                   None            0.00    0.00    None
 39.5200         2.2784           0.0000          0.0000           109.17         5.37          0.1200            0.0000           8.7333       PFind                   None            0.00    0.00    None
 41.7600         2.1612           0.0000          0.0000            33.33         1.64          0.1400            0.0000           5.3333       PFind                   None            0.00    0.00    None
 42.5200         2.1243           0.0000          0.0000           165.83         8.16          0.0200            0.0000          19.9000       PFind                   None            0.00    0.00    None
 45.3000         2.0002           0.0000          0.0000            74.17         3.65          0.1400            0.0000          11.8667       PFind                   None            0.00    0.00    None
 47.2600         1.9217           0.0000          0.0000            29.17         1.44          0.1000            0.0000           1.1667       PFind                   None            0.00    0.00    None
 48.3400         1.8813           0.0000          0.0000            48.33         2.38          0.0200            0.0000           5.8000       PFind                   None            0.00    0.00    None
 50.6200         1.8018           0.0000          0.0000           131.67         6.48          0.0200            0.0000          13.1667       PFind                   None            0.00    0.00    None
 51.3400         1.7782           0.0000          0.0000            40.00         1.97          0.0600            0.0000           3.2000       PFind                   None            0.00    0.00    None
 53.2000         1.7203           0.0000          0.0000            45.00         2.21          0.0200            0.0000           6.3000       PFind                   None            0.00    0.00    None
 55.0600         1.6665           0.0000          0.0000            57.50         2.83          0.1400            0.0000           3.4500       PFind                   None            0.00    0.00    None
 56.1600         1.6364           0.0000          0.0000            32.50         1.60          0.0600            0.0000           0.6500       PFind                   None            0.00    0.00    None
 59.2000         1.5595           0.0000          0.0000            32.50         1.60          0.0400            0.0000           0.6500       PFind                   None            0.00    0.00    None
 60.1800         1.5364           0.0000          0.0000            99.17         4.88          0.1400            0.0000           9.9167       PFind                   None            0.00    0.00    None
 61.5400         1.5057           0.0000          0.0000            65.00         3.20          0.1200            0.0000          10.4000       PFind                   None            0.00    0.00    None
 64.1600         1.4503           0.0000          0.0000            34.17         1.68          0.0600            0.0000           5.4667       PFind                   None            0.00    0.00    None
 64.6000         1.4415           0.0000          0.0000            29.17         1.44          0.0800            0.0000           0.5833       PFind                   None            0.00    0.00    None