File: Generating XRD fingerprints/INPUT/Detrital data/GG_4_pf_SFT.txt
Filename:
	C:\Program Files\Thermo Electron\WinXRD\Datafiles\FIEN2\GEO\GG_4_SFT.pk

File Created:
	February 25, 2021 - 10:15 AM

Specimen Id:
	GG4 SFT

Specimen Name:

Specimen Description:

Comment:
Scan Type: 2Theta Scan
Start Angle: 3 deg.
Stop Angle: 65 deg.
Num Points: 3101
Step Size: 0.02 deg.
Scan Rate: 1.000000
Scan Mode: Continuous
Wavelength: 1.540562
\Kalpha1: 1.540562	\Kalpha2: 1.544390	\Kbeta: 1.392218

Optics:
		Detector:
			 Type: Fixed Slits
		Tube:
			 Type: Fixed Slits

Datas:
Peaks:

Position        Dspace          ESD(P)          Corr.Fact       Intensity       Rel.Int.        FWHM(L)         ESD(L)          Area            Source                  Curve           Strain  CSize   CSize_Source
[deg]           [A]             [deg]           [deg]           [CPS]           [CPS]           [deg]           [deg]           [deg]           [--]                    [--]            [--]    [--]    [--]
  4.8600        18.1675           0.0000          0.0000            51.67         2.68          0.1400            0.0000           4.1333       PFind                   None            0.00    0.00    None
  5.3000        16.6602           0.0000          0.0000            35.00         1.81          0.1400            0.0000           3.5000       PFind                   None            0.00    0.00    None
  5.7800        15.2777           0.0000          0.0000            42.50         2.20          0.0400            0.0000           0.0000       PFind                   None            0.00    0.00    None
  6.6000        13.3813           0.0000          0.0000            51.67         2.68          0.1600            0.0000           2.0667       PFind                   None            0.00    0.00    None
  7.1000        12.4400           0.0000          0.0000            41.67         2.16          0.0400            0.0000           2.5000       PFind                   None            0.00    0.00    None
  7.8000        11.3251           0.0000          0.0000            39.17         2.03          0.1600            0.0000           0.7833       PFind                   None            0.00    0.00    None
  8.3000        10.6440           0.0000          0.0000            44.17         2.29          0.0000            0.0000           3.5333       PFind                   None            0.00    0.00    None
  9.4000         9.4007           0.0000          0.0000            47.50         2.46          0.1400            0.0000           3.8000       PFind                   None            0.00    0.00    None
 10.5000         8.4182           0.0000          0.0000            86.67         4.49          0.1600            0.0000          10.4000       PFind                   None            0.00    0.00    None
 12.2000         7.2487           0.0000          0.0000           180.00         9.32          0.1400            0.0000          25.2000       PFind                   None            0.00    0.00    None
 13.8400         6.3933           0.0000          0.0000            54.17         2.81          0.1600            0.0000           5.4167       PFind                   None            0.00    0.00    None
 17.8000         4.9789           0.0000          0.0000           247.50        12.82          0.0600            0.0000          29.7000       PFind                   None            0.00    0.00    None
 19.8400         4.4713           0.0000          0.0000           147.50         7.64          0.1200            0.0000          23.6000       PFind                   None            0.00    0.00    None
 22.0200         4.0333           0.0000          0.0000           247.50        12.82          0.0000            0.0000          19.8000       PFind                   None            0.00    0.00    None
 23.5200         3.7794           0.0000          0.0000           135.83         7.03          0.0400            0.0000          21.7333       PFind                   None            0.00    0.00    None
 24.6600         3.6072           0.0000          0.0000           134.17         6.95          0.0400            0.0000          21.4667       PFind                   None            0.00    0.00    None
 26.6000         3.3483           0.0000          0.0000          1930.83       100.00          0.0800            0.0000         231.7000       PFind                   None            0.00    0.00    None
 27.4800         3.2431           0.0000          0.0000            65.00         3.37          0.0800            0.0000           9.1000       PFind                   None            0.00    0.00    None
 28.6200         3.1164           0.0000          0.0000            76.67         3.97          0.0000            0.0000          12.2667       PFind                   None            0.00    0.00    None
 30.8200         2.8988           0.0000          0.0000            54.17         2.81          0.1600            0.0000           2.1667       PFind                   None            0.00    0.00    None
 32.0600         2.7895           0.0000          0.0000           115.83         6.00          0.1000            0.0000          18.5333       PFind                   None            0.00    0.00    None
 34.9200         2.5673           0.0000          0.0000           203.33        10.53          0.0200            0.0000          28.4667       PFind                   None            0.00    0.00    None
 36.0600         2.4887           0.0000          0.0000            65.83         3.41          0.1200            0.0000           9.2167       PFind                   None            0.00    0.00    None
 38.0600         2.3624           0.0000          0.0000           286.67        14.85          0.0400            0.0000          34.4000       PFind                   None            0.00    0.00    None
 39.6800         2.2696           0.0000          0.0000            32.50         1.68          0.1600            0.0000           5.2000       PFind                   None            0.00    0.00    None
 40.2600         2.2382           0.0000          0.0000            65.00         3.37          0.1600            0.0000           7.8000       PFind                   None            0.00    0.00    None
 41.9600         2.1514           0.0000          0.0000            45.00         2.33          0.1200            0.0000           6.3000       PFind                   None            0.00    0.00    None
 44.2400         2.0456           0.0000          0.0000           202.50        10.49          0.0800            0.0000          20.2500       PFind                   None            0.00    0.00    None
 45.5600         1.9894           0.0000          0.0000           311.67        16.14          0.1200            0.0000          49.8667       PFind                   None            0.00    0.00    None
 48.1400         1.8886           0.0000          0.0000            52.50         2.72          0.0800            0.0000           6.3000       PFind                   None            0.00    0.00    None
 49.1600         1.8518           0.0000          0.0000            34.17         1.77          0.0000            0.0000           2.0500       PFind                   None            0.00    0.00    None
 51.2400         1.7814           0.0000          0.0000            35.00         1.81          0.1000            0.0000           3.5000       PFind                   None            0.00    0.00    None
 53.2200         1.7197           0.0000          0.0000            39.17         2.03          0.0800            0.0000           3.1333       PFind                   None            0.00    0.00    None
 54.9600         1.6693           0.0000          0.0000            45.83         2.37          0.1600            0.0000           7.3333       PFind                   None            0.00    0.00    None
 55.7600         1.6472           0.0000          0.0000           101.67         5.27          0.1200            0.0000          10.1667       PFind                   None            0.00    0.00    None
 59.0600         1.5628           0.0000          0.0000            30.00         1.55          0.1200            0.0000           0.6000       PFind                   None            0.00    0.00    None
 60.9200         1.5195           0.0000          0.0000            39.17         2.03          0.1400            0.0000           3.9167       PFind                   None            0.00    0.00    None
 64.3800         1.4459           0.0000          0.0000           263.33        13.64          0.0200            0.0000          15.8000       PFind                   None            0.00    0.00    None
 64.5400         1.4427           0.0000          0.0000           120.83         6.26          0.0600            0.0000           7.2500       PFind                   None            0.00    0.00    None