File: Generating XRD fingerprints/INPUT/Detrital data/GG_5_pf_SFT.txt
Filename:
	C:\Program Files\Thermo Electron\WinXRD\Datafiles\FIEN2\GEO\GG_5_SFT.pk

File Created:
	February 25, 2021 - 10:16 AM

Specimen Id:
	GG5 SFT

Specimen Name:

Specimen Description:

Comment:
Scan Type: 2Theta Scan
Start Angle: 3 deg.
Stop Angle: 65 deg.
Num Points: 3101
Step Size: 0.02 deg.
Scan Rate: 1.000000
Scan Mode: Continuous
Wavelength: 1.540562
\Kalpha1: 1.540562	\Kalpha2: 1.544390	\Kbeta: 1.392218

Optics:
		Detector:
			 Type: Fixed Slits
		Tube:
			 Type: Fixed Slits

Datas:
Peaks:

Position        Dspace          ESD(P)          Corr.Fact       Intensity       Rel.Int.        FWHM(L)         ESD(L)          Area            Source                  Curve           Strain  CSize   CSize_Source
[deg]           [A]             [deg]           [deg]           [CPS]           [CPS]           [deg]           [deg]           [deg]           [--]                    [--]            [--]    [--]    [--]
  4.6400        19.0284           0.0000          0.0000            42.50         3.21          0.1400            0.0000           3.4000       PFind                   None            0.00    0.00    None
  4.9800        17.7300           0.0000          0.0000            38.33         2.90          0.1400            0.0000           3.8333       PFind                   None            0.00    0.00    None
  5.6000        15.7684           0.0000          0.0000            33.33         2.52          0.0400            0.0000           1.3333       PFind                   None            0.00    0.00    None
  6.2000        14.2437           0.0000          0.0000            55.00         4.16          0.1600            0.0000           5.5000       PFind                   None            0.00    0.00    None
  6.8400        12.9123           0.0000          0.0000            30.83         2.33          0.1400            0.0000           0.6167       PFind                   None            0.00    0.00    None
  7.3400        12.0338           0.0000          0.0000            35.83         2.71          0.1600            0.0000           3.5833       PFind                   None            0.00    0.00    None
  7.8600        11.2388           0.0000          0.0000            30.83         2.33          0.0600            0.0000           0.6167       PFind                   None            0.00    0.00    None
  8.5800        10.2972           0.0000          0.0000            35.83         2.71          0.1600            0.0000           4.3000       PFind                   None            0.00    0.00    None
  9.9600         8.8734           0.0000          0.0000            33.33         2.52          0.1000            0.0000           0.0000       PFind                   None            0.00    0.00    None
 11.7600         7.5189           0.0000          0.0000            31.67         2.39          0.1600            0.0000           0.0000       PFind                   None            0.00    0.00    None
 14.1800         6.2407           0.0000          0.0000            49.17         3.72          0.1400            0.0000           2.9500       PFind                   None            0.00    0.00    None
 20.1400         4.4054           0.0000          0.0000            93.33         7.06          0.0600            0.0000          14.9333       PFind                   None            0.00    0.00    None
 23.2400         3.8243           0.0000          0.0000            85.00         6.43          0.1200            0.0000          13.6000       PFind                   None            0.00    0.00    None
 24.5600         3.6216           0.0000          0.0000           100.00         7.56          0.1400            0.0000          10.0000       PFind                   None            0.00    0.00    None
 25.8400         3.4451           0.0000          0.0000           145.83        11.03          0.0200            0.0000          23.3333       PFind                   None            0.00    0.00    None
 27.8200         3.2042           0.0000          0.0000           103.33         7.81          0.1200            0.0000          14.4667       PFind                   None            0.00    0.00    None
 28.8800         3.0890           0.0000          0.0000            67.50         5.10          0.1600            0.0000          10.8000       PFind                   None            0.00    0.00    None
 31.1400         2.8697           0.0000          0.0000            33.33         2.52          0.1600            0.0000           2.6667       PFind                   None            0.00    0.00    None
 32.4000         2.7610           0.0000          0.0000            84.17         6.36          0.1600            0.0000          13.4667       PFind                   None            0.00    0.00    None
 34.8400         2.5730           0.0000          0.0000           106.67         8.07          0.0000            0.0000          14.9333       PFind                   None            0.00    0.00    None
 36.3400         2.4701           0.0000          0.0000            45.83         3.47          0.1400            0.0000           2.7500       PFind                   None            0.00    0.00    None
 37.9000         2.3720           0.0000          0.0000            93.33         7.06          0.1400            0.0000           9.3333       PFind                   None            0.00    0.00    None
 39.7600         2.2652           0.0000          0.0000           117.50         8.88          0.0400            0.0000           7.0500       PFind                   None            0.00    0.00    None
 41.7600         2.1612           0.0000          0.0000            32.50         2.46          0.1400            0.0000           0.0000       PFind                   None            0.00    0.00    None
 42.7400         2.1139           0.0000          0.0000           140.83        10.65          0.0400            0.0000          19.7167       PFind                   None            0.00    0.00    None
 45.3000         2.0002           0.0000          0.0000            62.50         4.73          0.1400            0.0000           5.0000       PFind                   None            0.00    0.00    None
 46.2200         1.9625           0.0000          0.0000            65.00         4.91          0.1600            0.0000          10.4000       PFind                   None            0.00    0.00    None
 48.6200         1.8711           0.0000          0.0000            49.17         3.72          0.1600            0.0000           5.9000       PFind                   None            0.00    0.00    None
 50.4200         1.8084           0.0000          0.0000           252.50        19.09          0.0400            0.0000          20.2000       PFind                   None            0.00    0.00    None
 51.0400         1.7879           0.0000          0.0000            45.00         3.40          0.0600            0.0000           6.3000       PFind                   None            0.00    0.00    None
 53.1200         1.7227           0.0000          0.0000            48.33         3.65          0.0400            0.0000           3.8667       PFind                   None            0.00    0.00    None
 54.6200         1.6789           0.0000          0.0000            30.00         2.27          0.1400            0.0000           3.0000       PFind                   None            0.00    0.00    None
 55.3000         1.6598           0.0000          0.0000            49.17         3.72          0.1400            0.0000           4.9167       PFind                   None            0.00    0.00    None
 56.0600         1.6391           0.0000          0.0000            83.33         6.30          0.1200            0.0000          13.3333       PFind                   None            0.00    0.00    None
 59.4400         1.5537           0.0000          0.0000            44.17         3.34          0.1000            0.0000           0.8833       PFind                   None            0.00    0.00    None
 60.3600         1.5322           0.0000          0.0000           101.67         7.69          0.0000            0.0000          14.2333       PFind                   None            0.00    0.00    None
 61.6800         1.5026           0.0000          0.0000            46.67         3.53          0.1400            0.0000           7.4667       PFind                   None            0.00    0.00    None
 62.1200         1.4930           0.0000          0.0000            36.67         2.77          0.0200            0.0000           0.0000       PFind                   None            0.00    0.00    None
 64.2800         1.4479           0.0000          0.0000            44.17         3.34          0.0800            0.0000           4.4167       PFind                   None            0.00    0.00    None