File: Generating XRD fingerprints/INPUT/Detrital data/GG_6_pf_SFT.txt
Filename:
	C:\Program Files\Thermo Electron\WinXRD\Datafiles\FIEN2\GEO\GG_6_SFT.pk

File Created:
	February 25, 2021 - 10:17 AM

Specimen Id:
	GG6 SFT

Specimen Name:

Specimen Description:

Comment:
Scan Type: 2Theta Scan
Start Angle: 3 deg.
Stop Angle: 65 deg.
Num Points: 3101
Step Size: 0.02 deg.
Scan Rate: 1.000000
Scan Mode: Continuous
Wavelength: 1.540562
\Kalpha1: 1.540562	\Kalpha2: 1.544390	\Kbeta: 1.392218

Optics:
		Detector:
			 Type: Fixed Slits
		Tube:
			 Type: Fixed Slits

Datas:
Peaks:

Position        Dspace          ESD(P)          Corr.Fact       Intensity       Rel.Int.        FWHM(L)         ESD(L)          Area            Source                  Curve           Strain  CSize   CSize_Source
[deg]           [A]             [deg]           [deg]           [CPS]           [CPS]           [deg]           [deg]           [deg]           [--]                    [--]            [--]    [--]    [--]
  4.7600        18.5490           0.0000          0.0000            35.83         2.24          0.1000            0.0000           2.1500       PFind                   None            0.00    0.00    None
  5.3400        16.5355           0.0000          0.0000            40.83         2.55          0.1000            0.0000           0.8167       PFind                   None            0.00    0.00    None
  5.6600        15.6013           0.0000          0.0000            30.83         1.93          0.1400            0.0000           1.2333       PFind                   None            0.00    0.00    None
  6.5800        13.4219           0.0000          0.0000            41.67         2.60          0.0000            0.0000           4.1667       PFind                   None            0.00    0.00    None
  7.2800        12.1328           0.0000          0.0000            45.00         2.81          0.1600            0.0000           2.7000       PFind                   None            0.00    0.00    None
  8.3600        10.5677           0.0000          0.0000            54.17         3.38          0.1600            0.0000           4.3333       PFind                   None            0.00    0.00    None
  9.8400         8.9813           0.0000          0.0000            32.50         2.03          0.0600            0.0000           1.3000       PFind                   None            0.00    0.00    None
 10.6800         8.2767           0.0000          0.0000            75.00         4.68          0.0200            0.0000           4.5000       PFind                   None            0.00    0.00    None
 12.3800         7.1438           0.0000          0.0000           446.67        27.89          0.0800            0.0000          53.6000       PFind                   None            0.00    0.00    None
 15.0800         5.8702           0.0000          0.0000            30.00         1.87          0.0800            0.0000           0.0000       PFind                   None            0.00    0.00    None
 19.3600         4.5810           0.0000          0.0000            39.17         2.45          0.1600            0.0000           2.3500       PFind                   None            0.00    0.00    None
 20.8400         4.2589           0.0000          0.0000            36.67         2.29          0.0600            0.0000           1.4667       PFind                   None            0.00    0.00    None
 22.5400         3.9414           0.0000          0.0000            31.67         1.98          0.1000            0.0000           0.6333       PFind                   None            0.00    0.00    None
 23.9600         3.7109           0.0000          0.0000            57.50         3.59          0.1000            0.0000           8.0500       PFind                   None            0.00    0.00    None
 25.3400         3.5119           0.0000          0.0000           315.83        19.72          0.0400            0.0000          37.9000       PFind                   None            0.00    0.00    None
 27.0200         3.2972           0.0000          0.0000           690.83        43.13          0.1200            0.0000         110.5333       PFind                   None            0.00    0.00    None
 28.7000         3.1079           0.0000          0.0000            97.50         6.09          0.1200            0.0000          13.6500       PFind                   None            0.00    0.00    None
 30.6200         2.9173           0.0000          0.0000            96.67         6.04          0.1200            0.0000          11.6000       PFind                   None            0.00    0.00    None
 31.7200         2.8186           0.0000          0.0000            68.33         4.27          0.1200            0.0000          10.9333       PFind                   None            0.00    0.00    None
 34.1800         2.6211           0.0000          0.0000            55.00         3.43          0.0800            0.0000           8.8000       PFind                   None            0.00    0.00    None
 35.6600         2.5157           0.0000          0.0000           109.17         6.82          0.1200            0.0000          17.4667       PFind                   None            0.00    0.00    None
 36.6800         2.4480           0.0000          0.0000           137.50         8.58          0.0200            0.0000          13.7500       PFind                   None            0.00    0.00    None
 37.5000         2.3963           0.0000          0.0000            43.33         2.71          0.1600            0.0000           6.9333       PFind                   None            0.00    0.00    None
 38.9600         2.3098           0.0000          0.0000            37.50         2.34          0.0200            0.0000           0.0000       PFind                   None            0.00    0.00    None
 41.4600         2.1762           0.0000          0.0000            40.00         2.50          0.0800            0.0000           4.0000       PFind                   None            0.00    0.00    None
 42.1600         2.1416           0.0000          0.0000            50.00         3.12          0.1600            0.0000           4.0000       PFind                   None            0.00    0.00    None
 45.7000         1.9836           0.0000          0.0000           245.83        15.35          0.0200            0.0000          39.3333       PFind                   None            0.00    0.00    None
 48.3800         1.8798           0.0000          0.0000            40.00         2.50          0.1400            0.0000           6.4000       PFind                   None            0.00    0.00    None
 50.0800         1.8199           0.0000          0.0000            62.50         3.90          0.1400            0.0000          10.0000       PFind                   None            0.00    0.00    None
 51.2600         1.7808           0.0000          0.0000            41.67         2.60          0.1000            0.0000           4.1667       PFind                   None            0.00    0.00    None
 52.9800         1.7269           0.0000          0.0000            32.50         2.03          0.0400            0.0000           3.2500       PFind                   None            0.00    0.00    None
 55.0200         1.6676           0.0000          0.0000            59.17         3.69          0.1600            0.0000           7.1000       PFind                   None            0.00    0.00    None
 55.9800         1.6413           0.0000          0.0000            87.50         5.46          0.0400            0.0000          14.0000       PFind                   None            0.00    0.00    None
 59.3600         1.5556           0.0000          0.0000            34.17         2.13          0.1000            0.0000           4.1000       PFind                   None            0.00    0.00    None
 60.8200         1.5217           0.0000          0.0000            40.00         2.50          0.1000            0.0000           4.0000       PFind                   None            0.00    0.00    None
 61.8400         1.4991           0.0000          0.0000            65.00         4.06          0.1400            0.0000           7.8000       PFind                   None            0.00    0.00    None
 63.8400         1.4568           0.0000          0.0000            31.67         1.98          0.1200            0.0000           0.0000       PFind                   None            0.00    0.00    None
 64.3400         1.4467           0.0000          0.0000            31.67         1.98          0.0200            0.0000           1.9000       PFind                   None            0.00    0.00    None