File: Generating XRD fingerprints/INPUT/Detrital data/GG_7_pf_SFT.txt
Filename:
	C:\Program Files\Thermo Electron\WinXRD\Datafiles\FIEN2\GEO\GG_7_SFT.pk

File Created:
	February 25, 2021 - 10:17 AM

Specimen Id:
	GG7 SFT

Specimen Name:

Specimen Description:

Comment:
Scan Type: 2Theta Scan
Start Angle: 3 deg.
Stop Angle: 65 deg.
Num Points: 3101
Step Size: 0.02 deg.
Scan Rate: 1.000000
Scan Mode: Continuous
Wavelength: 1.540562
\Kalpha1: 1.540562	\Kalpha2: 1.544390	\Kbeta: 1.392218

Optics:
		Detector:
			 Type: Fixed Slits
		Tube:
			 Type: Fixed Slits

Datas:
Peaks:

Position        Dspace          ESD(P)          Corr.Fact       Intensity       Rel.Int.        FWHM(L)         ESD(L)          Area            Source                  Curve           Strain  CSize   CSize_Source
[deg]           [A]             [deg]           [deg]           [CPS]           [CPS]           [deg]           [deg]           [deg]           [--]                    [--]            [--]    [--]    [--]
  4.6400        19.0284           0.0000          0.0000            43.33         3.16          0.1600            0.0000           0.0000       PFind                   None            0.00    0.00    None
  5.3600        16.4739           0.0000          0.0000            48.33         3.53          0.0400            0.0000           0.0000       PFind                   None            0.00    0.00    None
  6.1800        14.2897           0.0000          0.0000           147.50        10.77          0.1200            0.0000          23.6000       PFind                   None            0.00    0.00    None
  6.7200        13.1426           0.0000          0.0000            58.33         4.26          0.1600            0.0000           2.3333       PFind                   None            0.00    0.00    None
  7.3000        12.0996           0.0000          0.0000            42.50         3.10          0.1600            0.0000           4.2500       PFind                   None            0.00    0.00    None
  7.8000        11.3251           0.0000          0.0000            47.50         3.47          0.0800            0.0000           1.9000       PFind                   None            0.00    0.00    None
  9.0400         9.7743           0.0000          0.0000           630.83        46.05          0.1000            0.0000          75.7000       PFind                   None            0.00    0.00    None
  9.5600         9.2437           0.0000          0.0000            38.33         2.80          0.0600            0.0000           3.0667       PFind                   None            0.00    0.00    None
 10.4400         8.4665           0.0000          0.0000            29.17         2.13          0.0200            0.0000           1.1667       PFind                   None            0.00    0.00    None
 11.1800         7.9077           0.0000          0.0000            38.33         2.80          0.0000            0.0000           0.0000       PFind                   None            0.00    0.00    None
 12.6400         6.9974           0.0000          0.0000           541.67        39.54          0.0000            0.0000          75.8333       PFind                   None            0.00    0.00    None
 14.0200         6.3116           0.0000          0.0000            58.33         4.26          0.0200            0.0000           7.0000       PFind                   None            0.00    0.00    None
 17.2200         5.1452           0.0000          0.0000            27.50         2.01          0.1200            0.0000           1.6500       PFind                   None            0.00    0.00    None
 18.9200         4.6866           0.0000          0.0000           182.50        13.32          0.0400            0.0000          25.5500       PFind                   None            0.00    0.00    None
 21.0000         4.2268           0.0000          0.0000           244.17        17.82          0.0200            0.0000          24.4167       PFind                   None            0.00    0.00    None
 22.4200         3.9622           0.0000          0.0000            30.83         2.25          0.0600            0.0000           1.2333       PFind                   None            0.00    0.00    None
 23.7200         3.7479           0.0000          0.0000           127.50         9.31          0.0200            0.0000          20.4000       PFind                   None            0.00    0.00    None
 24.8000         3.5871           0.0000          0.0000           160.00        11.68          0.1600            0.0000          25.6000       PFind                   None            0.00    0.00    None
 26.7800         3.3262           0.0000          0.0000          1370.00       100.00          0.0000            0.0000         164.4000       PFind                   None            0.00    0.00    None
 28.1000         3.1729           0.0000          0.0000           527.50        38.50          0.0200            0.0000          73.8500       PFind                   None            0.00    0.00    None
 30.0200         2.9742           0.0000          0.0000           184.17        13.44          0.0200            0.0000          22.1000       PFind                   None            0.00    0.00    None
 30.9600         2.8860           0.0000          0.0000            54.17         3.95          0.1400            0.0000           4.3333       PFind                   None            0.00    0.00    None
 32.2000         2.7776           0.0000          0.0000            94.17         6.87          0.1400            0.0000          15.0667       PFind                   None            0.00    0.00    None
 34.6400         2.5874           0.0000          0.0000            94.17         6.87          0.1000            0.0000          15.0667       PFind                   None            0.00    0.00    None
 35.7800         2.5075           0.0000          0.0000            38.33         2.80          0.0600            0.0000           3.8333       PFind                   None            0.00    0.00    None
 36.6600         2.4493           0.0000          0.0000           123.33         9.00          0.0400            0.0000          12.3333       PFind                   None            0.00    0.00    None
 38.2000         2.3540           0.0000          0.0000            26.67         1.95          0.0800            0.0000           1.6000       PFind                   None            0.00    0.00    None
 40.1200         2.2457           0.0000          0.0000            30.83         2.25          0.0200            0.0000           1.8500       PFind                   None            0.00    0.00    None
 41.6600         2.1662           0.0000          0.0000            27.50         2.01          0.1200            0.0000           0.0000       PFind                   None            0.00    0.00    None
 42.1800         2.1407           0.0000          0.0000            40.00         2.92          0.1000            0.0000           2.4000       PFind                   None            0.00    0.00    None
 43.1200         2.0961           0.0000          0.0000            27.50         2.01          0.0800            0.0000           2.7500       PFind                   None            0.00    0.00    None
 45.3000         2.0002           0.0000          0.0000            57.50         4.20          0.0600            0.0000           9.2000       PFind                   None            0.00    0.00    None
 47.2800         1.9210           0.0000          0.0000            35.00         2.55          0.0600            0.0000           4.2000       PFind                   None            0.00    0.00    None
 49.3400         1.8455           0.0000          0.0000            34.17         2.49          0.1600            0.0000           0.6833       PFind                   None            0.00    0.00    None
 51.2400         1.7814           0.0000          0.0000            45.00         3.28          0.1600            0.0000           3.6000       PFind                   None            0.00    0.00    None
 53.3400         1.7161           0.0000          0.0000            35.00         2.55          0.1400            0.0000           4.2000       PFind                   None            0.00    0.00    None
 55.3800         1.6576           0.0000          0.0000            61.67         4.50          0.0400            0.0000           4.9333       PFind                   None            0.00    0.00    None
 57.6400         1.5979           0.0000          0.0000            27.50         2.01          0.0600            0.0000           0.5500       PFind                   None            0.00    0.00    None
 59.3200         1.5566           0.0000          0.0000            28.33         2.07          0.0000            0.0000           1.7000       PFind                   None            0.00    0.00    None
 60.7000         1.5245           0.0000          0.0000            26.67         1.95          0.1000            0.0000           0.5333       PFind                   None            0.00    0.00    None
 61.7200         1.5017           0.0000          0.0000            53.33         3.89          0.1200            0.0000           8.5333       PFind                   None            0.00    0.00    None
 64.4600         1.4443           0.0000          0.0000            44.17         3.22          0.1200            0.0000           3.5333       PFind                   None            0.00    0.00    None