File: Generating XRD fingerprints/INPUT/Detrital data/GG_8_pf_SFT.txt
Filename:
	C:\Program Files\Thermo Electron\WinXRD\Datafiles\FIEN2\GEO\GG_8_SFT.pk

File Created:
	February 25, 2021 - 10:18 AM

Specimen Id:
	GG8 SFT

Specimen Name:

Specimen Description:

Comment:
Scan Type: 2Theta Scan
Start Angle: 3 deg.
Stop Angle: 65 deg.
Num Points: 3101
Step Size: 0.02 deg.
Scan Rate: 1.000000
Scan Mode: Continuous
Wavelength: 1.540562
\Kalpha1: 1.540562	\Kalpha2: 1.544390	\Kbeta: 1.392218

Optics:
		Detector:
			 Type: Fixed Slits
		Tube:
			 Type: Fixed Slits

Datas:
Peaks:

Position        Dspace          ESD(P)          Corr.Fact       Intensity       Rel.Int.        FWHM(L)         ESD(L)          Area            Source                  Curve           Strain  CSize   CSize_Source
[deg]           [A]             [deg]           [deg]           [CPS]           [CPS]           [deg]           [deg]           [deg]           [--]                    [--]            [--]    [--]    [--]
  4.7800        18.4714           0.0000          0.0000            40.00         2.59          0.0200            0.0000           1.6000       PFind                   None            0.00    0.00    None
  5.3200        16.5976           0.0000          0.0000            44.17         2.86          0.1400            0.0000           4.4167       PFind                   None            0.00    0.00    None
  6.2200        14.1979           0.0000          0.0000           205.83        13.33          0.0000            0.0000          28.8167       PFind                   None            0.00    0.00    None
  6.8000        12.9882           0.0000          0.0000            40.00         2.59          0.0600            0.0000           4.8000       PFind                   None            0.00    0.00    None
  7.3200        12.0666           0.0000          0.0000            41.67         2.70          0.0600            0.0000           0.0000       PFind                   None            0.00    0.00    None
  7.9600        11.0978           0.0000          0.0000            36.67         2.37          0.1200            0.0000           2.9333       PFind                   None            0.00    0.00    None
  9.4200         9.3808           0.0000          0.0000            70.00         4.53          0.1200            0.0000           7.0000       PFind                   None            0.00    0.00    None
 10.4800         8.4342           0.0000          0.0000            86.67         5.61          0.0200            0.0000          10.4000       PFind                   None            0.00    0.00    None
 11.7600         7.5189           0.0000          0.0000            34.17         2.21          0.0600            0.0000           3.4167       PFind                   None            0.00    0.00    None
 12.4800         7.0867           0.0000          0.0000           663.33        42.96          0.1000            0.0000          79.6000       PFind                   None            0.00    0.00    None
 13.1800         6.7119           0.0000          0.0000            30.83         2.00          0.1200            0.0000           0.6167       PFind                   None            0.00    0.00    None
 14.2000         6.2320           0.0000          0.0000            29.17         1.89          0.0800            0.0000           0.5833       PFind                   None            0.00    0.00    None
 15.0000         5.9014           0.0000          0.0000            34.17         2.21          0.0600            0.0000           1.3667       PFind                   None            0.00    0.00    None
 16.6800         5.3106           0.0000          0.0000            30.00         1.94          0.0800            0.0000           0.6000       PFind                   None            0.00    0.00    None
 19.7800         4.4847           0.0000          0.0000           109.17         7.07          0.0200            0.0000          13.1000       PFind                   None            0.00    0.00    None
 21.1400         4.1992           0.0000          0.0000            28.33         1.83          0.0000            0.0000           0.0000       PFind                   None            0.00    0.00    None
 22.9000         3.8803           0.0000          0.0000            78.33         5.07          0.0800            0.0000          12.5333       PFind                   None            0.00    0.00    None
 24.2200         3.6717           0.0000          0.0000            89.17         5.77          0.0200            0.0000          10.7000       PFind                   None            0.00    0.00    None
 25.5000         3.4902           0.0000          0.0000           171.67        11.12          0.1000            0.0000          27.4667       PFind                   None            0.00    0.00    None
 26.8200         3.3214           0.0000          0.0000           910.00        58.93          0.0400            0.0000         145.6000       PFind                   None            0.00    0.00    None
 28.2800         3.1531           0.0000          0.0000           140.83         9.12          0.1000            0.0000          14.0833       PFind                   None            0.00    0.00    None
 30.4400         2.9341           0.0000          0.0000            98.33         6.37          0.1000            0.0000          13.7667       PFind                   None            0.00    0.00    None
 31.2400         2.8608           0.0000          0.0000           150.83         9.77          0.0200            0.0000          24.1333       PFind                   None            0.00    0.00    None
 33.0400         2.7089           0.0000          0.0000            54.17         3.51          0.0000            0.0000           4.3333       PFind                   None            0.00    0.00    None
 34.9400         2.5658           0.0000          0.0000           142.50         9.23          0.0200            0.0000          19.9500       PFind                   None            0.00    0.00    None
 36.0000         2.4927           0.0000          0.0000            85.83         5.56          0.1200            0.0000          13.7333       PFind                   None            0.00    0.00    None
 37.6800         2.3853           0.0000          0.0000            79.17         5.13          0.1200            0.0000          12.6667       PFind                   None            0.00    0.00    None
 39.1200         2.3008           0.0000          0.0000            27.50         1.78          0.1000            0.0000           0.0000       PFind                   None            0.00    0.00    None
 40.2600         2.2382           0.0000          0.0000            49.17         3.18          0.0800            0.0000           2.9500       PFind                   None            0.00    0.00    None
 41.9400         2.1523           0.0000          0.0000            38.33         2.48          0.1400            0.0000           3.8333       PFind                   None            0.00    0.00    None
 44.2200         2.0465           0.0000          0.0000           124.17         8.04          0.1600            0.0000          14.9000       PFind                   None            0.00    0.00    None
 45.5600         1.9894           0.0000          0.0000           328.33        21.26          0.0400            0.0000          45.9667       PFind                   None            0.00    0.00    None
 46.4800         1.9521           0.0000          0.0000            26.67         1.73          0.0800            0.0000           0.5333       PFind                   None            0.00    0.00    None
 48.1200         1.8894           0.0000          0.0000           180.83        11.71          0.1400            0.0000          10.8500       PFind                   None            0.00    0.00    None
 50.1000         1.8192           0.0000          0.0000           194.17        12.57          0.0200            0.0000          15.5333       PFind                   None            0.00    0.00    None
 51.1200         1.7853           0.0000          0.0000            49.17         3.18          0.1400            0.0000           3.9333       PFind                   None            0.00    0.00    None
 52.8400         1.7312           0.0000          0.0000            33.33         2.16          0.1000            0.0000           0.6667       PFind                   None            0.00    0.00    None
 54.5400         1.6812           0.0000          0.0000            28.33         1.83          0.0800            0.0000           3.4000       PFind                   None            0.00    0.00    None
 55.2800         1.6604           0.0000          0.0000            61.67         3.99          0.1200            0.0000           9.8667       PFind                   None            0.00    0.00    None
 56.1800         1.6359           0.0000          0.0000            42.50         2.75          0.1600            0.0000           3.4000       PFind                   None            0.00    0.00    None
 59.1600         1.5604           0.0000          0.0000            30.83         2.00          0.0200            0.0000           2.4667       PFind                   None            0.00    0.00    None
 60.0400         1.5396           0.0000          0.0000            86.67         5.61          0.0800            0.0000           6.9333       PFind                   None            0.00    0.00    None
 60.9600         1.5186           0.0000          0.0000            38.33         2.48          0.1000            0.0000           3.0667       PFind                   None            0.00    0.00    None
 61.4800         1.5070           0.0000          0.0000            52.50         3.40          0.1200            0.0000           5.2500       PFind                   None            0.00    0.00    None
 64.0000         1.4536           0.0000          0.0000            27.50         1.78          0.0800            0.0000           2.2000       PFind                   None            0.00    0.00    None
 64.5800         1.4419           0.0000          0.0000            70.83         4.59          0.0800            0.0000           5.6667       PFind                   None            0.00    0.00    None