File: Generating XRD fingerprints/INPUT/Detrital data/GG_9_pf_SFT.txt
Filename:
	C:\Program Files\Thermo Electron\WinXRD\Datafiles\FIEN2\GEO\GG_9_SFT.pk

File Created:
	February 25, 2021 - 10:19 AM

Specimen Id:
	GG_9_SFT

Specimen Name:

Specimen Description:

Comment:
Scan Type: 2Theta Scan
Start Angle: 3 deg.
Stop Angle: 65 deg.
Num Points: 3101
Step Size: 0.02 deg.
Scan Rate: 1.000000
Scan Mode: Continuous
Wavelength: 1.540562
\Kalpha1: 1.540562	\Kalpha2: 1.544390	\Kbeta: 1.392218

Optics:
		Detector:
			 Type: Fixed Slits
		Tube:
			 Type: Fixed Slits

Datas:
Peaks:

Position        Dspace          ESD(P)          Corr.Fact       Intensity       Rel.Int.        FWHM(L)         ESD(L)          Area            Source                  Curve           Strain  CSize   CSize_Source
[deg]           [A]             [deg]           [deg]           [CPS]           [CPS]           [deg]           [deg]           [deg]           [--]                    [--]            [--]    [--]    [--]
  4.6400        19.0284           0.0000          0.0000            52.50         4.73          0.1600            0.0000           4.2000       PFind                   None            0.00    0.00    None
  5.1000        17.3131           0.0000          0.0000            54.17         4.88          0.0200            0.0000           3.2500       PFind                   None            0.00    0.00    None
  6.0800        14.5245           0.0000          0.0000           167.50        15.08          0.0200            0.0000          26.8000       PFind                   None            0.00    0.00    None
  6.7200        13.1426           0.0000          0.0000            67.50         6.08          0.1600            0.0000           4.0500       PFind                   None            0.00    0.00    None
  7.4600        11.8405           0.0000          0.0000            40.83         3.68          0.0800            0.0000           0.8167       PFind                   None            0.00    0.00    None
  8.2200        10.7474           0.0000          0.0000            94.17         8.48          0.1000            0.0000           7.5333       PFind                   None            0.00    0.00    None
  9.8800         8.9451           0.0000          0.0000            30.00         2.70          0.1600            0.0000           1.8000       PFind                   None            0.00    0.00    None
 10.6000         8.3390           0.0000          0.0000            70.83         6.38          0.0800            0.0000           8.5000       PFind                   None            0.00    0.00    None
 12.5800         7.0306           0.0000          0.0000           737.50        66.39          0.0600            0.0000         118.0000       PFind                   None            0.00    0.00    None
 14.0200         6.3116           0.0000          0.0000            45.83         4.13          0.1200            0.0000           4.5833       PFind                   None            0.00    0.00    None
 17.9200         4.9458           0.0000          0.0000           385.00        34.66          0.1600            0.0000          61.6000       PFind                   None            0.00    0.00    None
 19.2800         4.5999           0.0000          0.0000            27.50         2.48          0.1000            0.0000           0.5500       PFind                   None            0.00    0.00    None
 20.6800         4.2915           0.0000          0.0000            30.00         2.70          0.0800            0.0000           0.6000       PFind                   None            0.00    0.00    None
 22.5800         3.9345           0.0000          0.0000            32.50         2.93          0.0600            0.0000           0.6500       PFind                   None            0.00    0.00    None
 23.9400         3.7140           0.0000          0.0000            26.67         2.40          0.0000            0.0000           0.5333       PFind                   None            0.00    0.00    None
 24.7200         3.5985           0.0000          0.0000           385.83        34.73          0.1600            0.0000          54.0167       PFind                   None            0.00    0.00    None
 25.9400         3.4320           0.0000          0.0000            36.67         3.30          0.1400            0.0000           0.7333       PFind                   None            0.00    0.00    None
 27.2600         3.2687           0.0000          0.0000            58.33         5.25          0.0200            0.0000           1.1667       PFind                   None            0.00    0.00    None
 28.3400         3.1466           0.0000          0.0000            98.33         8.85          0.1600            0.0000          15.7333       PFind                   None            0.00    0.00    None
 30.2200         2.9550           0.0000          0.0000            49.17         4.43          0.1600            0.0000           7.8667       PFind                   None            0.00    0.00    None
 31.6200         2.8273           0.0000          0.0000           116.67        10.50          0.0600            0.0000          11.6667       PFind                   None            0.00    0.00    None
 34.0000         2.6346           0.0000          0.0000            32.50         2.93          0.0600            0.0000           0.0000       PFind                   None            0.00    0.00    None
 35.0800         2.5559           0.0000          0.0000            89.17         8.03          0.0800            0.0000          14.2667       PFind                   None            0.00    0.00    None
 36.1800         2.4807           0.0000          0.0000            88.33         7.95          0.0000            0.0000          12.3667       PFind                   None            0.00    0.00    None
 37.5400         2.3939           0.0000          0.0000            58.33         5.25          0.0200            0.0000           9.3333       PFind                   None            0.00    0.00    None
 38.9000         2.3133           0.0000          0.0000            35.00         3.15          0.1200            0.0000           2.1000       PFind                   None            0.00    0.00    None
 39.9800         2.2532           0.0000          0.0000            30.00         2.70          0.1000            0.0000           0.6000       PFind                   None            0.00    0.00    None
 41.4600         2.1762           0.0000          0.0000            27.50         2.48          0.1000            0.0000           0.5500       PFind                   None            0.00    0.00    None
 42.1200         2.1436           0.0000          0.0000            30.83         2.78          0.1000            0.0000           3.0833       PFind                   None            0.00    0.00    None
 45.6400         1.9861           0.0000          0.0000           382.50        34.43          0.0600            0.0000          61.2000       PFind                   None            0.00    0.00    None
 48.1800         1.8872           0.0000          0.0000            38.33         3.45          0.0000            0.0000           3.8333       PFind                   None            0.00    0.00    None
 49.9000         1.8261           0.0000          0.0000            44.17         3.98          0.0000            0.0000           6.1833       PFind                   None            0.00    0.00    None
 50.6200         1.8018           0.0000          0.0000            47.50         4.28          0.1600            0.0000           2.8500       PFind                   None            0.00    0.00    None
 51.3200         1.7788           0.0000          0.0000            40.83         3.68          0.1600            0.0000           4.0833       PFind                   None            0.00    0.00    None
 52.9400         1.7281           0.0000          0.0000            26.67         2.40          0.1600            0.0000           2.6667       PFind                   None            0.00    0.00    None
 54.6200         1.6789           0.0000          0.0000            35.83         3.23          0.0800            0.0000           0.0000       PFind                   None            0.00    0.00    None
 55.4200         1.6565           0.0000          0.0000            50.00         4.50          0.1000            0.0000           4.0000       PFind                   None            0.00    0.00    None
 55.9400         1.6424           0.0000          0.0000            85.83         7.73          0.0800            0.0000          13.7333       PFind                   None            0.00    0.00    None
 58.9800         1.5647           0.0000          0.0000            37.50         3.38          0.0000            0.0000           5.2500       PFind                   None            0.00    0.00    None
 60.8600         1.5208           0.0000          0.0000            49.17         4.43          0.1600            0.0000           3.9333       PFind                   None            0.00    0.00    None
 61.4600         1.5074           0.0000          0.0000            36.67         3.30          0.0200            0.0000           5.8667       PFind                   None            0.00    0.00    None
 62.2400         1.4904           0.0000          0.0000            30.00         2.70          0.0000            0.0000           0.0000       PFind                   None            0.00    0.00    None
 64.1000         1.4516           0.0000          0.0000            40.83         3.68          0.1600            0.0000           2.4500       PFind                   None            0.00    0.00    None
 64.3000         1.4475           0.0000          0.0000            26.67         2.40          0.0600            0.0000           0.0000       PFind                   None            0.00    0.00    None